!@!!GADDS PLOTSO FILE: Chi integration type
!@!!Title/SampleName: map-129
!@!!Comment: ?
!@!!User: Bruker Instrument Administrator
!@!!Site: University of Illinois Chicago
!@!!Frame: map-129_01_000.gfrm
!@!!Wavelengths    1.54184   1.54056   1.54439
!@!!Frame angles: 2Theta: 65.000 Omega: 50.000 Phi: 0.000 Chi: 90.000
!@!!Integration range: 2Theta: 55.000 to 75.000  Gamma: -105.000 to -75.000
!@!!Integration method: bin normalized
!@!N
!@!SS
!@!M
!@!L 0.0 0.0 0.0 0.0
!@!XDegrees
!@!YCounts
55.000 3.137146
55.005 2.99116
55.010 3.085266
55.015 3.349625
55.020 3.529552
55.025 4.217054
55.030 4.44217
55.035 4.364223
55.040 4.601626
55.045 4.714921
55.050 4.661777
55.055 4.427416
55.060 3.85503
55.065 3.679198
55.070 3.775614
55.075 3.664928
55.080 3.156111
55.085 3.01051
55.090 3.394046
55.095 3.882094
55.100 4.074789
55.105 3.897187
55.110 3.748166
55.115 3.734327
55.120 3.567005
55.125 3.055938
55.130 2.950816
55.135 3.007506
55.140 3.397325
55.145 3.834417
55.150 3.784945
55.155 3.896392
55.160 3.622986
55.165 3.436565
55.170 2.98299
55.175 2.71223
55.180 2.694342
55.185 2.702123
55.190 2.473761
55.195 2.546532
55.200 2.693666
55.205 3.113233
55.210 2.953501
55.215 3.10009
55.220 3.515581
55.225 3.689086
55.230 3.792103
55.235 3.625812
55.240 3.281309
55.245 3.476408
55.250 3.226511
55.255 3.330684
55.260 3.494678
55.265 3.360495
55.270 3.793664
55.275 3.67513
55.280 3.57033
55.285 3.483112
55.290 3.41847
55.295 3.597943
55.300 3.544068
55.305 3.586682
55.310 3.599757
55.315 3.486459
55.320 3.551928
55.325 3.327436
55.330 3.449758
55.335 3.538123
55.340 3.507509
55.345 3.731975
55.350 3.690933
55.355 3.584212
55.360 3.762454
55.365 3.630758
55.370 3.658268
55.375 3.78992
55.380 3.649498
55.385 3.743472
55.390 3.755373
55.395 3.567188
55.400 3.376098
55.405 3.120145
55.410 3.008869
55.415 3.241501
55.420 3.40435
55.425 3.439381
55.430 3.602786
55.435 3.864498
55.440 4.032005
55.445 4.460644
55.450 4.580465
55.455 4.404485
55.460 4.451263
55.465 4.466243
55.470 4.822649
55.475 4.835534
55.480 4.662219
55.485 4.439368
55.490 4.428954
55.495 4.404635
55.500 4.128191
55.505 3.753969
55.510 3.612533
55.515 3.438106
55.520 3.610142
55.525 3.802764
55.530 3.861265
55.535 3.719145
55.540 3.888464
55.545 3.862096
55.550 3.85716
55.555 3.710041
55.560 3.491377
55.565 3.435543
55.570 3.359372
55.575 3.337057
55.580 3.579446
55.585 3.889998
55.590 3.973487
55.595 4.148228
55.600 4.277577
55.605 4.275922
55.610 4.36078
55.615 4.043769
55.620 3.749481
55.625 3.621036
55.630 3.568458
55.635 3.885861
55.640 4.036878
55.645 3.800462
55.650 3.519435
55.655 3.280162
55.660 3.310256
55.665 3.426753
55.670 3.246978
55.675 3.311964
55.680 3.452238
55.685 3.579023
55.690 3.487677
55.695 3.253245
55.700 3.000855
55.705 2.794482
55.710 2.819863
55.715 3.0553
55.720 3.32441
55.725 3.529698
55.730 3.696423
55.735 4.000232
55.740 3.872551
55.745 3.645545
55.750 3.586661
55.755 3.590386
55.760 3.646939
55.765 3.517154
55.770 3.545191
55.775 3.721381
55.780 3.699375
55.785 3.806325
55.790 3.677405
55.795 3.666727
55.800 3.468654
55.805 3.223925
55.810 3.233644
55.815 3.137961
55.820 3.115446
55.825 3.191887
55.830 3.374375
55.835 3.713691
55.840 3.862667
55.845 4.07316
55.850 3.869518
55.855 3.794698
55.860 3.674078
55.865 3.114138
55.870 3.06851
55.875 3.280123
55.880 3.114575
55.885 3.656115
55.890 3.823009
55.895 3.966162
55.900 4.045586
55.905 3.711903
55.910 3.600633
55.915 3.758223
55.920 3.377331
55.925 3.124535
55.930 3.119705
55.935 3.116378
55.940 3.080381
55.945 2.906583
55.950 3.033349
55.955 3.227789
55.960 3.197357
55.965 3.322803
55.970 3.529565
55.975 3.926317
55.980 3.990514
55.985 3.829111
55.990 3.949519
55.995 4.152158
56.000 4.051145
56.005 3.743403
56.010 3.807251
56.015 3.85626
56.020 3.815724
56.025 3.684993
56.030 3.951988
56.035 4.012783
56.040 4.190611
56.045 4.207388
56.050 4.071795
56.055 4.131064
56.060 4.149158
56.065 4.01836
56.070 4.021101
56.075 3.718335
56.080 3.63139
56.085 3.662586
56.090 3.585177
56.095 3.114285
56.100 2.921859
56.105 2.77457
56.110 2.516223
56.115 2.323929
56.120 2.249877
56.125 2.448876
56.130 2.492462
56.135 2.489964
56.140 2.855251
56.145 3.467051
56.150 3.614039
56.155 3.380669
56.160 3.160249
56.165 3.273476
56.170 3.329311
56.175 3.254847
56.180 2.996967
56.185 2.925676
56.190 2.89405
56.195 3.232874
56.200 3.667842
56.205 3.686892
56.210 3.721284
56.215 3.522508
56.220 3.696963
56.225 3.786128
56.230 3.73997
56.235 3.64412
56.240 3.637424
56.245 3.3539
56.250 3.491625
56.255 3.340973
56.260 3.19163
56.265 3.319186
56.270 3.077773
56.275 2.784917
56.280 2.770431
56.285 2.823263
56.290 2.913457
56.295 2.865516
56.300 2.69776
56.305 3.106771
56.310 3.572481
56.315 3.635853
56.320 3.537639
56.325 3.598864
56.330 3.75988
56.335 3.639297
56.340 3.354803
56.345 3.406674
56.350 3.508758
56.355 3.659982
56.360 3.536026
56.365 3.283569
56.370 3.393913
56.375 3.230691
56.380 3.089535
56.385 3.176062
56.390 3.26116
56.395 3.398846
56.400 3.608708
56.405 3.721768
56.410 3.865783
56.415 3.710514
56.420 3.546281
56.425 3.403073
56.430 3.146433
56.435 3.021074
56.440 3.162992
56.445 3.395073
56.450 3.545746
56.455 3.746836
56.460 3.646444
56.465 3.819096
56.470 3.680767
56.475 3.40475
56.480 3.132248
56.485 3.138256
56.490 2.99087
56.495 3.397728
56.500 3.537043
56.505 3.594756
56.510 3.892075
56.515 4.15267
56.520 4.161742
56.525 4.045056
56.530 3.764217
56.535 3.760082
56.540 3.522827
56.545 3.235969
56.550 3.160376
56.555 3.175858
56.560 3.135411
56.565 3.530336
56.570 3.425019
56.575 3.456144
56.580 3.540222
56.585 3.591158
56.590 3.700291
56.595 3.563271
56.600 3.374161
56.605 3.209202
56.610 3.233176
56.615 3.029665
56.620 2.976057
56.625 3.003445
56.630 2.789768
56.635 2.644519
56.640 3.192031
56.645 3.347625
56.650 3.376114
56.655 3.770387
56.660 4.180858
56.665 4.416244
56.670 4.223739
56.675 3.894699
56.680 3.748337
56.685 3.363005
56.690 2.979523
56.695 3.120001
56.700 3.543311
56.705 3.500302
56.710 3.430646
56.715 3.396287
56.720 3.533565
56.725 3.445387
56.730 3.107876
56.735 2.675016
56.740 2.839569
56.745 2.891907
56.750 3.121227
56.755 3.118777
56.760 3.069233
56.765 3.008927
56.770 2.818649
56.775 2.61775
56.780 2.574048
56.785 2.40724
56.790 2.301732
56.795 2.349326
56.800 2.679848
56.805 3.271651
56.810 3.186117
56.815 3.073387
56.820 3.054451
56.825 3.388215
56.830 3.440716
56.835 3.296769
56.840 3.094665
56.845 3.36274
56.850 3.470001
56.855 3.372152
56.860 3.156128
56.865 3.384193
56.870 3.223861
56.875 2.993894
56.880 2.919762
56.885 3.070327
56.890 3.063977
56.895 2.86304
56.900 2.70315
56.905 2.602217
56.910 2.372406
56.915 2.323246
56.920 2.112035
56.925 2.253536
56.930 2.161177
56.935 2.016831
56.940 2.477919
56.945 2.609624
56.950 2.567848
56.955 2.800316
56.960 2.807482
56.965 2.809673
56.970 2.887956
56.975 2.794632
56.980 2.876235
56.985 2.779318
56.990 2.666077
56.995 2.59032
57.000 2.682996
57.005 2.691082
57.010 2.596733
57.015 2.613072
57.020 2.69817
57.025 2.672559
57.030 2.594281
57.035 2.567495
57.040 2.789193
57.045 3.020194
57.050 3.224825
57.055 3.415554
57.060 3.573853
57.065 3.646275
57.070 3.611844
57.075 3.534456
57.080 3.152018
57.085 3.023521
57.090 2.900444
57.095 3.101712
57.100 2.983059
57.105 2.829472
57.110 2.601367
57.115 2.740797
57.120 2.658485
57.125 2.68422
57.130 2.8258
57.135 3.25433
57.140 3.396701
57.145 3.330142
57.150 3.130354
57.155 3.096979
57.160 3.02229
57.165 3.195562
57.170 3.32365
57.175 3.329808
57.180 3.680053
57.185 3.873617
57.190 3.548205
57.195 3.150404
57.200 2.483128
57.205 2.236077
57.210 2.524883
57.215 2.648972
57.220 3.184185
57.225 3.50183
57.230 3.748741
57.235 3.648033
57.240 3.752964
57.245 3.694954
57.250 3.547509
57.255 3.414412
57.260 3.393937
57.265 3.28703
57.270 3.528056
57.275 3.570596
57.280 3.518364
57.285 3.166803
57.290 2.968579
57.295 2.921253
57.300 3.020816
57.305 2.824195
57.310 2.586878
57.315 2.387464
57.320 2.561589
57.325 2.614659
57.330 2.399259
57.335 2.397925
57.340 2.547629
57.345 2.455353
57.350 2.325519
57.355 2.238087
57.360 2.193101
57.365 2.203695
57.370 2.438866
57.375 2.294991
57.380 2.613399
57.385 2.890851
57.390 3.33224
57.395 3.430477
57.400 3.417919
57.405 3.211777
57.410 3.456279
57.415 3.478373
57.420 3.273417
57.425 2.973026
57.430 2.938226
57.435 2.982792
57.440 3.192493
57.445 3.17302
57.450 3.335484
57.455 3.54669
57.460 3.573468
57.465 3.470393
57.470 3.418349
57.475 2.961277
57.480 2.712442
57.485 2.708213
57.490 2.662592
57.495 3.189698
57.500 3.479104
57.505 3.684208
57.510 3.82688
57.515 3.94298
57.520 4.021217
57.525 4.114745
57.530 3.932073
57.535 3.67776
57.540 3.769594
57.545 3.841502
57.550 3.536781
57.555 3.441231
57.560 3.6271
57.565 3.568765
57.570 3.611077
57.575 3.452575
57.580 3.710388
57.585 3.742569
57.590 3.502789
57.595 3.140365
57.600 3.264683
57.605 3.211138
57.610 3.143513
57.615 3.337211
57.620 3.704576
57.625 3.617452
57.630 3.543736
57.635 3.336797
57.640 3.398394
57.645 3.13602
57.650 2.67554
57.655 2.685796
57.660 2.991794
57.665 3.331365
57.670 3.2493
57.675 3.385624
57.680 3.524891
57.685 3.496458
57.690 3.446416
57.695 3.409858
57.700 3.509073
57.705 3.640387
57.710 3.704978
57.715 3.739814
57.720 3.514662
57.725 3.045865
57.730 2.666638
57.735 2.723116
57.740 2.760798
57.745 2.541243
57.750 2.551129
57.755 2.740963
57.760 2.814864
57.765 2.824656
57.770 2.651202
57.775 2.975146
57.780 3.147727
57.785 3.293782
57.790 3.793483
57.795 4.249003
57.800 4.257267
57.805 4.062887
57.810 3.769326
57.815 3.666311
57.820 3.514081
57.825 3.264489
57.830 3.113913
57.835 3.222868
57.840 3.294327
57.845 3.353794
57.850 3.569486
57.855 3.658031
57.860 3.807347
57.865 3.666437
57.870 3.87633
57.875 3.758996
57.880 3.406526
57.885 3.194363
57.890 3.148843
57.895 3.376213
57.900 3.518021
57.905 3.588358
57.910 3.732733
57.915 3.973033
57.920 3.988879
57.925 3.595691
57.930 3.19187
57.935 3.262855
57.940 3.064454
57.945 3.053381
57.950 3.023005
57.955 2.993424
57.960 3.26786
57.965 3.637734
57.970 3.594516
57.975 3.409886
57.980 3.204937
57.985 3.356342
57.990 3.299181
57.995 3.046031
58.000 2.816236
58.005 2.74656
58.010 2.783488
58.015 2.711405
58.020 2.272125
58.025 2.199204
58.030 2.418211
58.035 2.449903
58.040 2.591025
58.045 3.009987
58.050 3.245916
58.055 3.384274
58.060 3.386945
58.065 3.384451
58.070 3.510854
58.075 3.407351
58.080 3.080027
58.085 3.013571
58.090 3.365535
58.095 3.625541
58.100 3.832659
58.105 3.585593
58.110 3.492056
58.115 3.564455
58.120 3.430966
58.125 3.112689
58.130 2.813821
58.135 2.914081
58.140 2.943499
58.145 2.953224
58.150 3.057709
58.155 3.4103
58.160 3.624435
58.165 3.408873
58.170 3.041448
58.175 3.241737
58.180 3.287538
58.185 3.210917
58.190 2.859208
58.195 2.895498
58.200 3.272795
58.205 3.320123
58.210 3.273721
58.215 3.269588
58.220 3.462877
58.225 3.64194
58.230 3.448778
58.235 3.312673
58.240 3.270933
58.245 3.361238
58.250 3.764118
58.255 3.880404
58.260 4.044093
58.265 4.20548
58.270 4.334812
58.275 4.332454
58.280 4.165397
58.285 3.907716
58.290 3.919324
58.295 3.858461
58.300 3.775732
58.305 3.55247
58.310 3.64038
58.315 3.765424
58.320 3.594417
58.325 3.175014
58.330 3.267112
58.335 2.865108
58.340 2.750566
58.345 2.729668
58.350 2.803296
58.355 2.972476
58.360 3.095299
58.365 2.924604
58.370 3.264525
58.375 3.402957
58.380 3.12478
58.385 3.003659
58.390 2.88263
58.395 2.992927
58.400 3.164212
58.405 2.936365
58.410 2.811891
58.415 3.001598
58.420 2.815592
58.425 2.816433
58.430 2.714875
58.435 2.682376
58.440 2.821584
58.445 2.914042
58.450 3.132567
58.455 3.828065
58.460 3.9932
58.465 4.00308
58.470 4.020487
58.475 4.219098
58.480 4.19157
58.485 3.913392
58.490 3.565506
58.495 3.476153
58.500 3.169058
58.505 3.077116
58.510 2.824407
58.515 3.103062
58.520 3.147975
58.525 3.162742
58.530 3.481529
58.535 3.805967
58.540 4.129248
58.545 4.087782
58.550 3.932863
58.555 3.838621
58.560 3.742754
58.565 3.744007
58.570 3.759529
58.575 3.699672
58.580 3.855284
58.585 3.938822
58.590 3.910664
58.595 4.003432
58.600 3.886851
58.605 3.677509
58.610 3.847404
58.615 3.837783
58.620 4.042816
58.625 4.503122
58.630 4.666518
58.635 4.893995
58.640 4.755061
58.645 4.468566
58.650 4.792399
58.655 4.740767
58.660 4.730016
58.665 4.577109
58.670 4.592413
58.675 5.048981
58.680 5.130935
58.685 4.764137
58.690 4.547488
58.695 4.56844
58.700 4.705253
58.705 4.722707
58.710 4.850724
58.715 5.037716
58.720 5.197651
58.725 5.450363
58.730 5.311253
58.735 5.382176
58.740 5.371877
58.745 5.636458
58.750 6.130661
58.755 6.35593
58.760 6.250508
58.765 6.747091
58.770 7.10336
58.775 7.694021
58.780 7.733433
58.785 7.645525
58.790 7.860811
58.795 7.787585
58.800 7.286194
58.805 6.991037
58.810 6.722091
58.815 6.690864
58.820 7.108709
58.825 6.673962
58.830 6.481994
58.835 6.742672
58.840 6.970724
58.845 6.883698
58.850 6.896026
58.855 7.006781
58.860 7.566071
58.865 7.961959
58.870 7.826807
58.875 7.499784
58.880 7.407183
58.885 6.905954
58.890 6.496987
58.895 6.144605
58.900 6.15813
58.905 6.091428
58.910 5.981256
58.915 5.631245
58.920 5.778651
58.925 5.801474
58.930 5.656369
58.935 5.973164
58.940 6.39633
58.945 6.940173
58.950 7.351067
58.955 6.936738
58.960 7.02152
58.965 6.814477
58.970 6.583017
58.975 6.412369
58.980 6.268899
58.985 6.049015
58.990 6.028542
58.995 6.381991
59.000 6.787021
59.005 6.454375
59.010 6.318051
59.015 6.390664
59.020 7.179185
59.025 7.811937
59.030 7.812933
59.035 7.601975
59.040 7.474926
59.045 7.277593
59.050 7.078916
59.055 6.72716
59.060 6.263042
59.065 5.645295
59.070 5.532009
59.075 5.384521
59.080 5.34197
59.085 4.92066
59.090 4.664031
59.095 4.530528
59.100 4.447722
59.105 4.905321
59.110 5.017005
59.115 5.106933
59.120 5.127378
59.125 5.168794
59.130 5.217957
59.135 5.242671
59.140 4.893561
59.145 4.875257
59.150 4.733852
59.155 4.978791
59.160 4.610286
59.165 4.634271
59.170 4.477768
59.175 4.169992
59.180 3.964108
59.185 3.828597
59.190 3.656276
59.195 3.612048
59.200 3.345382
59.205 3.47063
59.210 3.621753
59.215 3.880536
59.220 4.107123
59.225 4.142284
59.230 4.260505
59.235 4.303348
59.240 4.448301
59.245 4.455271
59.250 4.101451
59.255 3.721221
59.260 3.628624
59.265 3.621794
59.270 3.278035
59.275 2.94046
59.280 2.847181
59.285 3.086859
59.290 3.565137
59.295 3.673661
59.300 3.673341
59.305 3.757579
59.310 3.807122
59.315 3.570946
59.320 3.355302
59.325 2.865542
59.330 2.560291
59.335 2.413393
59.340 2.469919
59.345 2.729826
59.350 3.009391
59.355 3.026092
59.360 2.961125
59.365 2.881051
59.370 2.913645
59.375 2.898184
59.380 2.728992
59.385 2.685073
59.390 2.804579
59.395 3.04668
59.400 3.61369
59.405 4.044545
59.410 4.136229
59.415 4.189768
59.420 4.340038
59.425 4.266276
59.430 4.011509
59.435 3.711026
59.440 3.730033
59.445 3.872591
59.450 4.015425
59.455 3.859545
59.460 3.931314
59.465 4.043435
59.470 3.676239
59.475 3.237281
59.480 3.009604
59.485 2.905894
59.490 2.832026
59.495 2.584208
59.500 2.510144
59.505 2.494861
59.510 2.777486
59.515 2.895425
59.520 2.898929
59.525 2.977313
59.530 3.20992
59.535 3.095749
59.540 3.241185
59.545 3.165752
59.550 2.894705
59.555 2.851928
59.560 2.91287
59.565 2.613338
59.570 2.724591
59.575 2.688359
59.580 2.390404
59.585 2.396182
59.590 2.52075
59.595 2.44391
59.600 2.600787
59.605 2.711469
59.610 3.087893
59.615 3.48632
59.620 3.423541
59.625 3.356752
59.630 3.259488
59.635 3.369922
59.640 2.994577
59.645 2.640503
59.650 2.470795
59.655 2.541806
59.660 2.713279
59.665 3.031313
59.670 3.025185
59.675 3.415236
59.680 3.497697
59.685 3.875804
59.690 4.073004
59.695 4.077988
59.700 3.870146
59.705 3.923481
59.710 3.729892
59.715 3.808593
59.720 3.519315
59.725 3.280023
59.730 3.161117
59.735 2.998246
59.740 2.787644
59.745 2.82938
59.750 2.646091
59.755 2.674938
59.760 2.900639
59.765 2.867825
59.770 3.193847
59.775 3.555362
59.780 3.374305
59.785 3.621402
59.790 3.893795
59.795 3.686653
59.800 3.722379
59.805 3.624416
59.810 3.572169
59.815 3.606951
59.820 3.382084
59.825 3.225496
59.830 3.574374
59.835 3.749562
59.840 3.637058
59.845 3.376176
59.850 3.109665
59.855 3.097329
59.860 2.803626
59.865 2.4903
59.870 2.445414
59.875 2.313232
59.880 2.468813
59.885 2.538966
59.890 2.674
59.895 2.922184
59.900 2.744423
59.905 2.852898
59.910 3.018807
59.915 3.217125
59.920 3.336937
59.925 3.336199
59.930 3.319205
59.935 3.402317
59.940 3.250722
59.945 3.16115
59.950 3.330282
59.955 3.219096
59.960 3.054209
59.965 2.936308
59.970 2.90885
59.975 3.167502
59.980 3.359533
59.985 3.361958
59.990 3.497527
59.995 3.499313
60.000 3.506222
60.005 3.521502
60.010 3.14626
60.015 2.892217
60.020 2.540927
60.025 2.522174
60.030 2.518933
60.035 2.481245
60.040 2.514718
60.045 2.597815
60.050 2.532399
60.055 2.507267
60.060 2.763684
60.065 2.989711
60.070 3.072725
60.075 3.185198
60.080 3.235395
60.085 3.310278
60.090 3.335166
60.095 3.177136
60.100 2.795663
60.105 2.945723
60.110 2.570195
60.115 2.612842
60.120 3.070032
60.125 2.968869
60.130 2.980563
60.135 2.943794
60.140 2.83003
60.145 3.107223
60.150 3.147407
60.155 2.599449
60.160 2.486018
60.165 2.432945
60.170 2.604996
60.175 2.626167
60.180 2.521847
60.185 2.401825
60.190 2.680137
60.195 2.946651
60.200 3.149068
60.205 3.135484
60.210 3.075594
60.215 2.847257
60.220 2.943389
60.225 3.162678
60.230 3.422878
60.235 3.509778
60.240 3.574442
60.245 3.688982
60.250 3.912819
60.255 3.728522
60.260 3.597796
60.265 3.446399
60.270 3.378075
60.275 3.342741
60.280 3.409552
60.285 3.6491
60.290 3.694854
60.295 3.661211
60.300 3.355596
60.305 3.195801
60.310 3.04349
60.315 2.846518
60.320 2.362655
60.325 2.266556
60.330 2.093054
60.335 1.970792
60.340 2.140796
60.345 2.520743
60.350 2.73366
60.355 3.137169
60.360 3.071969
60.365 3.248326
60.370 3.421523
60.375 3.111862
60.380 3.116461
60.385 3.280985
60.390 3.051211
60.395 2.918751
60.400 2.897121
60.405 3.189929
60.410 3.584577
60.415 3.420549
60.420 3.505576
60.425 3.921414
60.430 4.072656
60.435 3.843421
60.440 3.449143
60.445 3.284704
60.450 3.230862
60.455 3.192115
60.460 3.002055
60.465 3.143908
60.470 3.573743
60.475 3.873148
60.480 3.976857
60.485 3.830295
60.490 3.668299
60.495 3.830093
60.500 3.647724
60.505 3.506622
60.510 3.247235
60.515 3.010133
60.520 3.075229
60.525 2.884134
60.530 2.780447
60.535 3.151325
60.540 2.829741
60.545 2.800675
60.550 3.183921
60.555 3.169889
60.560 3.321027
60.565 3.333795
60.570 3.241788
60.575 3.292915
60.580 3.353394
60.585 3.041461
60.590 2.843105
60.595 2.571403
60.600 2.644475
60.605 2.995575
60.610 3.45915
60.615 3.545377
60.620 3.668098
60.625 3.702432
60.630 3.642908
60.635 3.356081
60.640 3.035864
60.645 3.030223
60.650 3.026294
60.655 3.233985
60.660 3.415664
60.665 3.467269
60.670 3.359708
60.675 3.168402
60.680 3.212709
60.685 3.400048
60.690 3.297002
60.695 3.173615
60.700 3.171121
60.705 3.271484
60.710 3.160177
60.715 2.731445
60.720 2.563442
60.725 2.483295
60.730 2.557382
60.735 2.782326
60.740 2.878841
60.745 3.10501
60.750 3.184052
60.755 3.200772
60.760 3.418985
60.765 3.61789
60.770 3.477684
60.775 3.321641
60.780 3.339398
60.785 3.72685
60.790 3.564897
60.795 3.327596
60.800 3.06768
60.805 3.133218
60.810 3.246433
60.815 3.23615
60.820 2.795367
60.825 2.774999
60.830 2.727586
60.835 2.766745
60.840 2.901349
60.845 2.924567
60.850 3.057233
60.855 3.215154
60.860 3.258843
60.865 3.310579
60.870 3.418895
60.875 3.418288
60.880 3.351826
60.885 3.381756
60.890 3.489307
60.895 3.634146
60.900 3.729504
60.905 3.718985
60.910 3.739362
60.915 4.086981
60.920 3.96332
60.925 3.739466
60.930 3.665537
60.935 3.938444
60.940 3.740181
60.945 3.372042
60.950 3.106896
60.955 2.945083
60.960 2.795758
60.965 2.788598
60.970 3.047251
60.975 3.233031
60.980 3.270225
60.985 3.300593
60.990 3.611877
60.995 3.986634
61.000 3.738672
61.005 3.473926
61.010 3.402894
61.015 3.513241
61.020 3.246726
61.025 3.358877
61.030 3.261716
61.035 3.277873
61.040 3.207905
61.045 3.121368
61.050 3.152647
61.055 3.390841
61.060 3.223159
61.065 3.334759
61.070 3.224941
61.075 3.515417
61.080 3.534472
61.085 3.570739
61.090 3.427145
61.095 3.401428
61.100 3.288264
61.105 3.42822
61.110 3.317264
61.115 3.419949
61.120 3.051732
61.125 2.621279
61.130 2.670576
61.135 2.808755
61.140 2.56345
61.145 2.400508
61.150 2.163698
61.155 2.384776
61.160 2.602358
61.165 2.763168
61.170 2.755549
61.175 2.728845
61.180 3.011375
61.185 3.486216
61.190 3.695921
61.195 3.797218
61.200 3.518896
61.205 3.472134
61.210 3.63937
61.215 3.526652
61.220 3.438526
61.225 3.277874
61.230 3.38747
61.235 3.716421
61.240 3.994105
61.245 4.073451
61.250 3.858376
61.255 3.697687
61.260 3.652767
61.265 3.736946
61.270 3.669307
61.275 3.418955
61.280 3.202925
61.285 3.373839
61.290 3.654115
61.295 3.742124
61.300 3.526263
61.305 3.287101
61.310 3.341977
61.315 3.248313
61.320 3.153047
61.325 3.008991
61.330 3.173029
61.335 3.233498
61.340 3.263892
61.345 2.954576
61.350 3.047549
61.355 2.902476
61.360 2.908704
61.365 2.791567
61.370 2.930369
61.375 2.875224
61.380 3.082802
61.385 3.064694
61.390 2.958107
61.395 2.739781
61.400 2.497632
61.405 2.423702
61.410 2.531201
61.415 2.677553
61.420 2.741005
61.425 2.74351
61.430 2.89977
61.435 2.901359
61.440 3.099753
61.445 3.128054
61.450 2.836602
61.455 2.813667
61.460 2.85532
61.465 3.053056
61.470 3.357072
61.475 3.311196
61.480 3.3041
61.485 3.4289
61.490 3.51868
61.495 3.416667
61.500 3.124888
61.505 2.86832
61.510 2.813153
61.515 2.660331
61.520 2.693866
61.525 2.801863
61.530 3.11202
61.535 3.122823
61.540 2.935583
61.545 2.780355
61.550 2.990369
61.555 3.203848
61.560 3.234689
61.565 3.217298
61.570 3.254888
61.575 3.323067
61.580 3.308241
61.585 3.279594
61.590 2.982625
61.595 2.84949
61.600 2.59606
61.605 2.693944
61.610 2.949624
61.615 3.034862
61.620 2.842119
61.625 2.981906
61.630 3.180411
61.635 3.302665
61.640 3.156991
61.645 3.106403
61.650 3.044058
61.655 3.044452
61.660 2.772903
61.665 2.790404
61.670 3.040328
61.675 2.975363
61.680 2.813305
61.685 3.124003
61.690 3.411558
61.695 3.464446
61.700 3.297878
61.705 3.0259
61.710 3.311937
61.715 3.303911
61.720 3.208061
61.725 3.183243
61.730 3.444026
61.735 3.614564
61.740 3.524666
61.745 3.467868
61.750 3.385913
61.755 3.360844
61.760 3.269927
61.765 3.039785
61.770 2.784832
61.775 2.769082
61.780 2.559676
61.785 2.732023
61.790 2.846215
61.795 2.925394
61.800 2.929125
61.805 3.08309
61.810 2.917683
61.815 2.974697
61.820 2.957066
61.825 2.770281
61.830 2.628169
61.835 2.56091
61.840 2.449063
61.845 2.590724
61.850 2.952797
61.855 2.945849
61.860 2.800985
61.865 2.858411
61.870 2.993516
61.875 3.424286
61.880 3.589158
61.885 3.279928
61.890 3.498583
61.895 3.741879
61.900 3.872565
61.905 3.58145
61.910 3.419583
61.915 3.293559
61.920 3.331142
61.925 3.15588
61.930 2.978272
61.935 2.736639
61.940 2.99083
61.945 2.909709
61.950 3.101098
61.955 3.55499
61.960 3.435213
61.965 3.36995
61.970 3.54787
61.975 3.663258
61.980 3.866501
61.985 3.539416
61.990 2.966023
61.995 2.813765
62.000 2.836543
62.005 2.850481
62.010 2.780827
62.015 2.852899
62.020 3.088832
62.025 3.260288
62.030 3.611295
62.035 3.609822
62.040 3.753339
62.045 3.654493
62.050 3.70641
62.055 3.839046
62.060 3.887506
62.065 3.754807
62.070 3.545361
62.075 3.48886
62.080 3.174649
62.085 3.027296
62.090 2.920664
62.095 2.925013
62.100 3.215483
62.105 3.682501
62.110 4.017966
62.115 4.454072
62.120 4.360434
62.125 4.092166
62.130 3.665624
62.135 3.343296
62.140 2.854515
62.145 2.407131
62.150 2.175417
62.155 2.045501
62.160 2.254761
62.165 2.489912
62.170 2.534275
62.175 2.645328
62.180 2.750541
62.185 3.122545
62.190 3.62174
62.195 3.641143
62.200 3.528531
62.205 3.804844
62.210 3.963409
62.215 3.862393
62.220 3.431162
62.225 3.281941
62.230 3.457545
62.235 3.653719
62.240 3.55218
62.245 3.237752
62.250 3.318118
62.255 3.519341
62.260 3.2166
62.265 2.984622
62.270 2.606796
62.275 2.509509
62.280 2.574309
62.285 2.583508
62.290 2.375551
62.295 2.554021
62.300 2.601286
62.305 2.909345
62.310 2.990868
62.315 3.130841
62.320 3.108895
62.325 3.073949
62.330 3.027779
62.335 3.075825
62.340 2.994214
62.345 3.093382
62.350 3.069923
62.355 3.052713
62.360 3.160479
62.365 2.989353
62.370 3.091443
62.375 2.918386
62.380 2.512816
62.385 2.577952
62.390 2.620776
62.395 2.776446
62.400 3.017961
62.405 3.152765
62.410 3.439533
62.415 3.746582
62.420 3.588381
62.425 3.487258
62.430 3.444674
62.435 3.605247
62.440 3.903997
62.445 3.948274
62.450 4.015924
62.455 4.05752
62.460 4.187433
62.465 4.195076
62.470 3.833289
62.475 3.352576
62.480 3.396744
62.485 3.389457
62.490 3.542319
62.495 3.421113
62.500 3.009915
62.505 3.332805
62.510 3.885875
62.515 3.921399
62.520 3.920954
62.525 3.758293
62.530 4.139871
62.535 4.400286
62.540 4.017183
62.545 3.4128
62.550 3.261797
62.555 3.477481
62.560 3.800575
62.565 3.566987
62.570 3.706139
62.575 3.742134
62.580 4.281288
62.585 4.661717
62.590 4.732642
62.595 4.397161
62.600 4.577675
62.605 4.548321
62.610 4.498951
62.615 4.113299
62.620 3.663985
62.625 3.368709
62.630 3.445638
62.635 3.301965
62.640 3.338037
62.645 3.811505
62.650 4.075949
62.655 4.143048
62.660 4.004926
62.665 4.012492
62.670 4.146021
62.675 3.889923
62.680 3.207611
62.685 2.995008
62.690 2.99892
62.695 3.085712
62.700 2.926316
62.705 2.877187
62.710 2.806188
62.715 2.988271
62.720 3.007928
62.725 3.24983
62.730 3.454617
62.735 3.464416
62.740 3.494224
62.745 3.939079
62.750 4.022012
62.755 3.827215
62.760 3.674524
62.765 3.515778
62.770 3.549395
62.775 3.217193
62.780 2.878445
62.785 2.594773
62.790 2.607179
62.795 2.273082
62.800 2.330621
62.805 2.368572
62.810 2.354768
62.815 2.384572
62.820 2.625751
62.825 2.670504
62.830 3.078576
62.835 2.997581
62.840 2.98003
62.845 3.059761
62.850 3.090885
62.855 3.186853
62.860 3.303167
62.865 3.04324
62.870 3.167134
62.875 3.175352
62.880 3.204563
62.885 2.90852
62.890 2.801855
62.895 2.816003
62.900 3.00668
62.905 3.090324
62.910 3.295398
62.915 3.438485
62.920 3.652676
62.925 3.56261
62.930 3.62267
62.935 3.398132
62.940 3.409024
62.945 3.453126
62.950 3.575101
62.955 3.375308
62.960 3.272205
62.965 3.277201
62.970 3.345701
62.975 3.189721
62.980 3.008211
62.985 3.061459
62.990 3.188097
62.995 3.428746
63.000 3.405174
63.005 3.743007
63.010 3.82341
63.015 3.78985
63.020 3.785056
63.025 3.8294
63.030 4.117046
63.035 4.1147
63.040 3.954855
63.045 3.806413
63.050 3.673702
63.055 3.399004
63.060 3.373912
63.065 3.104809
63.070 2.83144
63.075 2.667703
63.080 3.105971
63.085 3.13221
63.090 3.067061
63.095 3.106153
63.100 3.245243
63.105 3.336941
63.110 3.290765
63.115 2.874555
63.120 3.305768
63.125 3.812554
63.130 3.54823
63.135 3.117073
63.140 3.309653
63.145 3.604751
63.150 3.634816
63.155 3.175543
63.160 2.81922
63.165 2.880851
63.170 3.520514
63.175 3.352395
63.180 3.007637
63.185 3.281864
63.190 3.535467
63.195 3.435553
63.200 3.351486
63.205 2.825363
63.210 2.625776
63.215 2.616222
63.220 2.566135
63.225 2.383829
63.230 2.478797
63.235 2.489163
63.240 2.685411
63.245 2.670611
63.250 2.614868
63.255 2.663637
63.260 2.758203
63.265 2.803654
63.270 3.017793
63.275 2.857021
63.280 3.040042
63.285 3.268929
63.290 3.403454
63.295 3.467854
63.300 3.634065
63.305 3.306985
63.310 3.50063
63.315 3.720488
63.320 3.351196
63.325 2.998359
63.330 2.934789
63.335 2.757507
63.340 3.086352
63.345 3.368989
63.350 3.235281
63.355 3.282407
63.360 3.559624
63.365 3.786775
63.370 4.003282
63.375 4.110737
63.380 3.971135
63.385 4.213595
63.390 4.413258
63.395 4.341218
63.400 4.128758
63.405 3.952145
63.410 3.727004
63.415 3.608127
63.420 3.529593
63.425 3.365355
63.430 3.354477
63.435 3.530404
63.440 3.700305
63.445 3.916025
63.450 3.58343
63.455 3.40128
63.460 3.565975
63.465 3.436391
63.470 3.006994
63.475 2.949313
63.480 3.039224
63.485 3.026999
63.490 3.192796
63.495 3.119775
63.500 3.396033
63.505 4.146084
63.510 4.065968
63.515 4.123643
63.520 4.454477
63.525 4.421453
63.530 4.381978
63.535 4.281188
63.540 3.958805
63.545 4.05642
63.550 4.024132
63.555 3.908274
63.560 3.985677
63.565 3.993389
63.570 3.5445
63.575 3.497211
63.580 3.197979
63.585 3.110482
63.590 3.114547
63.595 3.0799
63.600 3.215299
63.605 3.53396
63.610 3.541672
63.615 3.250262
63.620 3.037305
63.625 3.035122
63.630 2.988107
63.635 2.891794
63.640 2.913269
63.645 3.386906
63.650 4.005844
63.655 4.339137
63.660 4.342481
63.665 4.529164
63.670 4.831111
63.675 4.843105
63.680 4.453976
63.685 4.286685
63.690 4.186103
63.695 4.150043
63.700 4.160012
63.705 3.992567
63.710 4.109943
63.715 4.032913
63.720 3.801753
63.725 4.156249
63.730 4.116785
63.735 3.735674
63.740 3.557554
63.745 3.440453
63.750 3.53072
63.755 3.892451
63.760 3.722275
63.765 3.882916
63.770 3.865762
63.775 3.970257
63.780 4.234329
63.785 4.570462
63.790 4.27023
63.795 3.82719
63.800 3.75349
63.805 3.923341
63.810 3.997493
63.815 3.94539
63.820 3.787984
63.825 3.937843
63.830 4.102129
63.835 3.961657
63.840 3.74512
63.845 3.38614
63.850 3.10088
63.855 3.114987
63.860 3.097053
63.865 3.240652
63.870 3.69118
63.875 3.807106
63.880 3.843431
63.885 4.026047
63.890 4.091612
63.895 4.078442
63.900 3.905979
63.905 3.672478
63.910 3.592152
63.915 3.82051
63.920 3.886444
63.925 3.787435
63.930 3.658861
63.935 3.61761
63.940 3.721581
63.945 3.790151
63.950 3.649536
63.955 3.863847
63.960 3.945105
63.965 4.428113
63.970 4.54267
63.975 4.597687
63.980 4.761058
63.985 4.769028
63.990 4.556425
63.995 4.766162
64.000 4.77961
64.005 4.837723
64.010 4.729502
64.015 4.477605
64.020 4.315793
64.025 3.9652
64.030 3.553422
64.035 3.147467
64.040 3.238823
64.045 3.360621
64.050 3.416768
64.055 3.371464
64.060 3.455254
64.065 3.35307
64.070 3.268175
64.075 3.190978
64.080 3.104589
64.085 3.266055
64.090 3.517432
64.095 3.528795
64.100 3.557806
64.105 3.73826
64.110 3.496872
64.115 3.539154
64.120 3.649915
64.125 3.671744
64.130 3.875389
64.135 4.084455
64.140 3.869942
64.145 3.997325
64.150 4.133271
64.155 3.97225
64.160 3.906717
64.165 3.786785
64.170 3.710566
64.175 3.914179
64.180 4.168106
64.185 4.25448
64.190 4.346455
64.195 4.165797
64.200 4.175569
64.205 4.433513
64.210 4.572151
64.215 4.298154
64.220 4.04756
64.225 3.992562
64.230 4.285522
64.235 4.423253
64.240 4.403977
64.245 4.543625
64.250 5.094422
64.255 5.060976
64.260 5.082862
64.265 4.988548
64.270 4.802435
64.275 4.40707
64.280 4.043049
64.285 3.983327
64.290 3.929872
64.295 3.967093
64.300 3.808195
64.305 3.906577
64.310 3.99054
64.315 4.030242
64.320 3.526838
64.325 3.473838
64.330 3.507509
64.335 3.817217
64.340 3.660754
64.345 3.8472
64.350 3.78555
64.355 3.801474
64.360 4.106277
64.365 3.911927
64.370 3.685748
64.375 3.770586
64.380 4.04343
64.385 4.435216
64.390 4.678248
64.395 4.61694
64.400 4.831969
64.405 4.963755
64.410 5.138435
64.415 4.856576
64.420 4.746141
64.425 4.55572
64.430 4.425917
64.435 4.473851
64.440 4.494818
64.445 4.264167
64.450 4.351978
64.455 4.878994
64.460 5.092086
64.465 5.273568
64.470 5.427005
64.475 5.476583
64.480 5.600681
64.485 5.820076
64.490 5.766547
64.495 5.674927
64.500 5.767043
64.505 6.13501
64.510 6.835281
64.515 7.065248
64.520 7.041762
64.525 7.242602
64.530 7.719287
64.535 7.800903
64.540 8.01217
64.545 7.751413
64.550 8.436892
64.555 8.96295
64.560 9.388748
64.565 9.631968
64.570 9.98467
64.575 10.259166
64.580 10.841418
64.585 11.234468
64.590 11.65669
64.595 11.397872
64.600 11.576271
64.605 11.731087
64.610 11.472717
64.615 11.465364
64.620 11.327026
64.625 11.632163
64.630 12.25337
64.635 12.371103
64.640 12.294486
64.645 12.523411
64.650 13.003232
64.655 13.278895
64.660 13.286477
64.665 13.14145
64.670 12.951561
64.675 12.965675
64.680 12.641513
64.685 12.186184
64.690 11.796988
64.695 11.703074
64.700 11.852712
64.705 11.881868
64.710 12.163252
64.715 11.989825
64.720 11.794303
64.725 11.47034
64.730 10.83382
64.735 10.540729
64.740 10.84213
64.745 10.575539
64.750 10.621633
64.755 10.503322
64.760 10.801514
64.765 11.22097
64.770 11.49701
64.775 11.218475
64.780 10.901472
64.785 10.771995
64.790 11.082757
64.795 10.778708
64.800 10.711028
64.805 10.519201
64.810 10.682099
64.815 10.999061
64.820 10.880644
64.825 10.841759
64.830 11.165972
64.835 11.371395
64.840 11.061339
64.845 10.609838
64.850 10.192932
64.855 9.680711
64.860 9.374617
64.865 9.218424
64.870 9.068348
64.875 8.884457
64.880 8.996365
64.885 9.757922
64.890 10.696458
64.895 11.056127
64.900 10.653824
64.905 9.969642
64.910 10.23982
64.915 10.268342
64.920 9.504575
64.925 9.231741
64.930 8.76438
64.935 8.410309
64.940 8.151494
64.945 7.973154
64.950 7.698339
64.955 7.347666
64.960 6.926
64.965 6.988048
64.970 7.231922
64.975 7.151613
64.980 6.721189
64.985 6.744693
64.990 6.755449
64.995 6.319605
65.000 5.722517
65.005 5.393805
65.010 5.445728
65.015 5.44514
65.020 5.170458
65.025 5.424036
65.030 5.862532
65.035 6.180936
65.040 5.659076
65.045 5.06758
65.050 4.719775
65.055 4.668315
65.060 4.598192
65.065 4.43651
65.070 4.429564
65.075 4.91683
65.080 5.267518
65.085 5.595619
65.090 5.629431
65.095 5.647096
65.100 5.21389
65.105 4.689333
65.110 4.829417
65.115 4.519032
65.120 4.413986
65.125 4.349502
65.130 4.14032
65.135 4.013148
65.140 4.161784
65.145 4.115101
65.150 4.324841
65.155 4.289311
65.160 4.380723
65.165 4.244473
65.170 4.492919
65.175 4.544801
65.180 4.50061
65.185 4.55803
65.190 4.420322
65.195 4.308335
65.200 4.553193
65.205 4.462538
65.210 4.651871
65.215 4.472403
65.220 4.514904
65.225 4.208139
65.230 4.073335
65.235 4.243566
65.240 4.464106
65.245 4.301895
65.250 3.889362
65.255 3.859655
65.260 4.040379
65.265 3.892397
65.270 3.849072
65.275 3.503852
65.280 3.30811
65.285 3.572664
65.290 3.879035
65.295 4.16916
65.300 4.466085
65.305 4.280238
65.310 4.502224
65.315 4.730332
65.320 4.989077
65.325 4.722106
65.330 4.568261
65.335 4.164347
65.340 3.880109
65.345 3.824523
65.350 3.468441
65.355 3.190084
65.360 3.210397
65.365 3.221851
65.370 3.633688
65.375 3.627472
65.380 3.269091
65.385 3.488265
65.390 3.394734
65.395 3.403139
65.400 3.743471
65.405 3.685711
65.410 4.102972
65.415 4.472671
65.420 4.378893
65.425 4.458701
65.430 4.366074
65.435 4.208123
65.440 4.141467
65.445 4.187102
65.450 4.283139
65.455 4.523382
65.460 4.43334
65.465 4.310189
65.470 4.337612
65.475 4.432659
65.480 4.212575
65.485 4.10706
65.490 4.205735
65.495 4.49219
65.500 4.681985
65.505 4.678826
65.510 4.530876
65.515 4.680895
65.520 4.650868
65.525 4.246116
65.530 4.221383
65.535 4.397039
65.540 4.115856
65.545 4.047631
65.550 3.985888
65.555 3.829602
65.560 3.87513
65.565 3.530943
65.570 3.357441
65.575 3.778285
65.580 3.613181
65.585 3.432092
65.590 3.92807
65.595 3.869689
65.600 3.905481
65.605 3.579628
65.610 3.392442
65.615 3.916344
65.620 3.791127
65.625 3.639699
65.630 4.016356
65.635 4.113843
65.640 4.115454
65.645 3.958782
65.650 3.677749
65.655 3.638212
65.660 3.598886
65.665 3.365677
65.670 3.349815
65.675 3.429621
65.680 3.446217
65.685 3.264953
65.690 3.123227
65.695 3.031783
65.700 3.425215
65.705 3.491947
65.710 3.524986
65.715 3.603285
65.720 3.805842
65.725 3.821925
65.730 3.533551
65.735 3.188069
65.740 2.913706
65.745 2.876121
65.750 3.059797
65.755 3.043619
65.760 3.147808
65.765 3.243477
65.770 3.075766
65.775 3.071684
65.780 2.922103
65.785 2.980835
65.790 3.174069
65.795 3.214022
65.800 3.060848
65.805 3.239908
65.810 3.320721
65.815 3.273189
65.820 2.900293
65.825 2.718684
65.830 2.602403
65.835 2.928758
65.840 3.016193
65.845 2.974969
65.850 3.206516
65.855 3.769666
65.860 4.113125
65.865 4.051941
65.870 3.504221
65.875 3.412627
65.880 3.618502
65.885 3.583518
65.890 3.297544
65.895 3.26984
65.900 3.282546
65.905 3.624633
65.910 3.745455
65.915 3.844827
65.920 3.886868
65.925 3.824336
65.930 3.808531
65.935 4.040555
65.940 4.266123
65.945 4.295865
65.950 4.049883
65.955 3.909531
65.960 4.052516
65.965 4.170804
65.970 4.348253
65.975 4.256016
65.980 4.06948
65.985 3.897935
65.990 3.875173
65.995 3.74816
66.000 3.480419
66.005 3.207937
66.010 3.033092
66.015 3.153256
66.020 3.322088
66.025 3.178175
66.030 3.255288
66.035 3.108728
66.040 3.044998
66.045 2.962384
66.050 3.051754
66.055 3.162477
66.060 3.369123
66.065 3.867035
66.070 4.393729
66.075 4.541396
66.080 4.742908
66.085 4.721056
66.090 4.738488
66.095 4.517472
66.100 3.987963
66.105 3.769903
66.110 3.808769
66.115 3.948059
66.120 3.870262
66.125 3.653473
66.130 3.603814
66.135 3.589491
66.140 3.549319
66.145 3.409112
66.150 2.907728
66.155 2.852858
66.160 2.845168
66.165 3.030967
66.170 3.142316
66.175 3.058309
66.180 3.332173
66.185 3.53589
66.190 3.61381
66.195 3.581877
66.200 3.333757
66.205 3.296952
66.210 3.404013
66.215 3.157936
66.220 3.08491
66.225 3.267142
66.230 3.251503
66.235 3.227729
66.240 3.133852
66.245 3.03484
66.250 3.035483
66.255 2.920326
66.260 2.71912
66.265 2.71525
66.270 2.83103
66.275 2.985777
66.280 3.116475
66.285 3.141075
66.290 3.399731
66.295 3.749671
66.300 3.960229
66.305 3.860662
66.310 3.514071
66.315 3.495267
66.320 3.260895
66.325 3.122115
66.330 2.756432
66.335 2.869291
66.340 2.852799
66.345 2.783716
66.350 2.825964
66.355 3.265697
66.360 3.574881
66.365 3.80536
66.370 3.6667
66.375 3.756388
66.380 3.75927
66.385 3.528489
66.390 3.641867
66.395 3.353809
66.400 3.281176
66.405 3.130803
66.410 3.109364
66.415 3.441542
66.420 3.672065
66.425 3.35839
66.430 3.335087
66.435 3.372782
66.440 3.558335
66.445 3.548283
66.450 3.552979
66.455 3.391213
66.460 3.534345
66.465 3.594681
66.470 3.672591
66.475 3.678955
66.480 3.56806
66.485 3.236362
66.490 3.167212
66.495 2.89043
66.500 2.934256
66.505 3.062095
66.510 3.126277
66.515 3.400171
66.520 3.449281
66.525 3.321328
66.530 3.39966
66.535 3.296518
66.540 3.270042
66.545 3.298275
66.550 3.580299
66.555 3.78643
66.560 4.022086
66.565 4.179843
66.570 4.444631
66.575 4.505114
66.580 4.571463
66.585 4.473679
66.590 4.418091
66.595 4.212183
66.600 4.285025
66.605 4.220516
66.610 4.317969
66.615 4.08148
66.620 3.767877
66.625 3.954073
66.630 3.98911
66.635 3.944718
66.640 3.577806
66.645 3.264571
66.650 3.510316
66.655 3.72521
66.660 3.701656
66.665 3.89763
66.670 3.575741
66.675 3.726716
66.680 3.59587
66.685 3.14011
66.690 2.852422
66.695 2.656294
66.700 2.388082
66.705 2.475231
66.710 2.282888
66.715 2.430629
66.720 2.759712
66.725 2.746429
66.730 2.882149
66.735 2.816473
66.740 2.941137
66.745 2.978367
66.750 3.159533
66.755 3.076264
66.760 3.030009
66.765 3.059241
66.770 3.400492
66.775 3.21026
66.780 3.498421
66.785 3.334276
66.790 3.186293
66.795 3.308486
66.800 3.266396
66.805 2.903384
66.810 2.809243
66.815 2.844391
66.820 2.950433
66.825 2.957682
66.830 3.108229
66.835 3.214907
66.840 3.310272
66.845 3.324634
66.850 3.005224
66.855 2.919049
66.860 2.950745
66.865 2.814116
66.870 2.799796
66.875 3.496669
66.880 3.446521
66.885 3.531492
66.890 3.773089
66.895 3.784269
66.900 3.812064
66.905 3.70166
66.910 3.311619
66.915 3.553833
66.920 3.37709
66.925 3.288502
66.930 3.445297
66.935 3.394203
66.940 3.308614
66.945 3.103286
66.950 3.048812
66.955 3.005071
66.960 2.827728
66.965 2.680383
66.970 2.764591
66.975 2.988851
66.980 3.106534
66.985 3.343629
66.990 3.572228
66.995 4.050455
67.000 3.990243
67.005 3.897299
67.010 3.886811
67.015 3.54271
67.020 3.578057
67.025 3.349834
67.030 3.334172
67.035 3.511903
67.040 3.357676
67.045 3.346399
67.050 3.418149
67.055 3.191103
67.060 3.312869
67.065 3.088167
67.070 3.251228
67.075 3.393409
67.080 3.629002
67.085 4.023024
67.090 4.211141
67.095 4.280498
67.100 4.129592
67.105 4.054616
67.110 3.985594
67.115 3.770574
67.120 3.556813
67.125 3.689306
67.130 3.490737
67.135 3.447862
67.140 3.24312
67.145 3.158101
67.150 3.021065
67.155 3.154746
67.160 2.93506
67.165 2.890163
67.170 3.009362
67.175 3.325373
67.180 3.333949
67.185 3.3617
67.190 3.038291
67.195 3.36756
67.200 3.532253
67.205 3.450588
67.210 3.151798
67.215 3.124656
67.220 2.91511
67.225 3.02182
67.230 3.083419
67.235 3.193657
67.240 3.159463
67.245 3.337246
67.250 3.415542
67.255 3.399704
67.260 3.408474
67.265 3.050806
67.270 2.787893
67.275 2.632709
67.280 2.647533
67.285 2.517066
67.290 2.725138
67.295 2.713797
67.300 2.532709
67.305 2.600322
67.310 2.681288
67.315 2.80283
67.320 3.097889
67.325 3.373153
67.330 3.357697
67.335 3.542934
67.340 3.677531
67.345 3.805717
67.350 3.862892
67.355 3.796151
67.360 3.734861
67.365 3.927459
67.370 3.945108
67.375 4.019499
67.380 3.906133
67.385 3.761869
67.390 3.867675
67.395 3.911051
67.400 3.725142
67.405 4.011414
67.410 4.061935
67.415 4.268432
67.420 4.524267
67.425 4.332896
67.430 4.160726
67.435 4.34003
67.440 4.280277
67.445 4.257938
67.450 4.049875
67.455 3.747225
67.460 3.774233
67.465 3.626461
67.470 3.358964
67.475 2.94925
67.480 2.753193
67.485 2.497931
67.490 2.499934
67.495 2.548274
67.500 2.359299
67.505 2.392248
67.510 2.591329
67.515 2.882066
67.520 2.930758
67.525 2.9372
67.530 3.035626
67.535 3.146676
67.540 3.081406
67.545 2.883891
67.550 2.709187
67.555 3.02456
67.560 3.153593
67.565 2.996806
67.570 3.080053
67.575 3.034288
67.580 3.195188
67.585 3.364606
67.590 3.429106
67.595 3.545216
67.600 3.808067
67.605 4.052372
67.610 3.877031
67.615 3.790441
67.620 3.662462
67.625 3.286195
67.630 3.271738
67.635 3.30348
67.640 3.426431
67.645 3.913355
67.650 3.878522
67.655 3.719575
67.660 3.935051
67.665 4.013951
67.670 3.639725
67.675 3.418204
67.680 3.443364
67.685 3.586401
67.690 3.691832
67.695 3.716763
67.700 3.729266
67.705 3.948612
67.710 3.85229
67.715 3.432801
67.720 3.23085
67.725 3.294855
67.730 3.219937
67.735 3.28718
67.740 3.622756
67.745 3.795633
67.750 4.187983
67.755 4.300795
67.760 4.311574
67.765 4.184958
67.770 4.257046
67.775 4.300094
67.780 4.384983
67.785 4.714969
67.790 4.832817
67.795 4.861167
67.800 5.142943
67.805 5.318284
67.810 4.992584
67.815 4.758373
67.820 4.583893
67.825 4.330503
67.830 4.232513
67.835 4.01311
67.840 3.723797
67.845 4.188697
67.850 4.148636
67.855 4.18946
67.860 4.478405
67.865 4.603224
67.870 4.607839
67.875 5.096925
67.880 4.8937
67.885 4.99235
67.890 4.951035
67.895 4.844417
67.900 4.889689
67.905 5.035986
67.910 4.887837
67.915 5.154124
67.920 5.359984
67.925 5.515625
67.930 6.649728
67.935 6.976198
67.940 7.269476
67.945 7.490147
67.950 7.992774
67.955 8.230265
67.960 8.499372
67.965 7.981925
67.970 8.073436
67.975 7.945245
67.980 8.073424
67.985 7.843022
67.990 8.024667
67.995 8.105808
68.000 8.212992
68.005 8.11277
68.010 7.79613
68.015 7.225025
68.020 6.701362
68.025 6.608097
68.030 6.179994
68.035 6.199389
68.040 6.100151
68.045 6.558274
68.050 6.871934
68.055 7.322924
68.060 7.657125
68.065 7.944549
68.070 7.789849
68.075 8.065439
68.080 8.209049
68.085 8.226517
68.090 8.353277
68.095 7.508983
68.100 7.173874
68.105 6.997316
68.110 6.599493
68.115 6.20759
68.120 6.037696
68.125 5.965881
68.130 6.226486
68.135 6.301735
68.140 6.189972
68.145 6.068387
68.150 6.007209
68.155 5.955744
68.160 5.983977
68.165 6.158493
68.170 6.194175
68.175 5.987346
68.180 5.970931
68.185 5.862602
68.190 5.781705
68.195 5.563595
68.200 5.03709
68.205 4.995056
68.210 5.344049
68.215 5.271164
68.220 5.197426
68.225 4.802398
68.230 4.867834
68.235 5.547833
68.240 5.845979
68.245 5.87701
68.250 5.767335
68.255 5.612569
68.260 5.800856
68.265 5.815692
68.270 5.409469
68.275 5.078332
68.280 4.8391
68.285 4.959267
68.290 5.28089
68.295 5.246258
68.300 5.061214
68.305 4.84332
68.310 4.89688
68.315 5.316078
68.320 5.172175
68.325 5.114615
68.330 5.000081
68.335 4.867951
68.340 5.124781
68.345 4.652249
68.350 4.28099
68.355 4.202674
68.360 4.14082
68.365 4.361779
68.370 4.403687
68.375 4.280317
68.380 4.185352
68.385 3.70434
68.390 3.676863
68.395 3.488234
68.400 3.386284
68.405 3.27332
68.410 3.28026
68.415 3.543478
68.420 3.930833
68.425 4.273285
68.430 4.566254
68.435 4.643031
68.440 4.706189
68.445 4.562863
68.450 4.601444
68.455 4.543022
68.460 4.370926
68.465 4.436269
68.470 4.216353
68.475 4.277994
68.480 4.470646
68.485 4.490159
68.490 4.274289
68.495 4.383513
68.500 4.313934
68.505 4.341855
68.510 4.42251
68.515 4.468012
68.520 4.30829
68.525 4.230129
68.530 3.964889
68.535 3.87434
68.540 3.782929
68.545 3.497171
68.550 3.096528
68.555 3.270631
68.560 3.329764
68.565 3.000229
68.570 3.091751
68.575 3.463778
68.580 3.61212
68.585 3.798882
68.590 3.731972
68.595 3.742256
68.600 3.900096
68.605 3.584566
68.610 3.200511
68.615 3.215841
68.620 3.079554
68.625 2.935042
68.630 2.937336
68.635 3.048269
68.640 2.987632
68.645 3.173644
68.650 2.985954
68.655 3.011804
68.660 3.133728
68.665 3.270266
68.670 3.375424
68.675 3.224352
68.680 3.205137
68.685 3.28586
68.690 3.445864
68.695 3.470978
68.700 3.426301
68.705 3.542484
68.710 3.797509
68.715 3.658803
68.720 3.631744
68.725 3.538293
68.730 3.318873
68.735 3.141496
68.740 2.910722
68.745 2.560929
68.750 2.458303
68.755 2.22908
68.760 1.864375
68.765 2.12149
68.770 2.156588
68.775 2.110375
68.780 2.295362
68.785 2.463385
68.790 2.819052
68.795 3.037229
68.800 2.92918
68.805 2.895401
68.810 2.999554
68.815 2.689401
68.820 2.819944
68.825 2.863206
68.830 3.028767
68.835 3.111423
68.840 3.17566
68.845 3.335381
68.850 3.381559
68.855 3.263837
68.860 3.187575
68.865 3.212303
68.870 3.132717
68.875 3.045434
68.880 3.045289
68.885 3.276261
68.890 3.326222
68.895 3.32058
68.900 3.025093
68.905 2.98932
68.910 3.036587
68.915 3.143001
68.920 3.198994
68.925 3.360898
68.930 3.507558
68.935 3.582799
68.940 3.550347
68.945 3.26904
68.950 2.900888
68.955 2.794627
68.960 2.66196
68.965 2.789188
68.970 2.987352
68.975 3.235984
68.980 3.502216
68.985 3.671126
68.990 3.71547
68.995 3.618094
69.000 3.554417
69.005 3.449359
69.010 3.39962
69.015 3.654413
69.020 3.710301
69.025 3.579912
69.030 3.542726
69.035 3.460155
69.040 3.206824
69.045 2.952644
69.050 2.743921
69.055 2.812184
69.060 2.949803
69.065 2.944118
69.070 2.939306
69.075 3.28025
69.080 3.626864
69.085 3.583327
69.090 3.679406
69.095 3.390195
69.100 3.187735
69.105 3.599584
69.110 3.467354
69.115 3.217321
69.120 3.399903
69.125 3.860687
69.130 4.302936
69.135 4.38917
69.140 4.004874
69.145 3.922949
69.150 3.954619
69.155 3.994297
69.160 3.619291
69.165 4.006304
69.170 4.300395
69.175 4.475098
69.180 4.535734
69.185 4.281427
69.190 3.695075
69.195 3.595263
69.200 3.381123
69.205 3.44938
69.210 3.506138
69.215 3.64719
69.220 3.798552
69.225 3.751465
69.230 3.838248
69.235 3.607341
69.240 3.165104
69.245 3.067385
69.250 3.426631
69.255 3.498247
69.260 3.601745
69.265 3.286205
69.270 3.202558
69.275 3.181319
69.280 2.948959
69.285 2.758815
69.290 3.237906
69.295 3.175231
69.300 3.330492
69.305 3.33212
69.310 3.612732
69.315 3.899614
69.320 3.845626
69.325 3.466009
69.330 3.516901
69.335 3.469944
69.340 3.630708
69.345 3.494115
69.350 3.551617
69.355 3.466353
69.360 3.62327
69.365 3.566833
69.370 3.633095
69.375 3.863898
69.380 3.735505
69.385 3.667823
69.390 3.518946
69.395 3.448398
69.400 3.689501
69.405 3.548809
69.410 3.290179
69.415 3.229285
69.420 3.198219
69.425 3.081433
69.430 3.098504
69.435 2.906872
69.440 2.870823
69.445 2.787287
69.450 2.642031
69.455 2.766339
69.460 2.836382
69.465 3.048575
69.470 3.18751
69.475 3.042771
69.480 2.96445
69.485 3.071096
69.490 2.84663
69.495 2.808692
69.500 2.660605
69.505 2.742241
69.510 2.798102
69.515 3.234054
69.520 3.459654
69.525 3.313435
69.530 3.273726
69.535 3.240328
69.540 3.270756
69.545 3.52158
69.550 3.132384
69.555 2.908873
69.560 3.278013
69.565 3.508863
69.570 3.698613
69.575 3.486512
69.580 3.402679
69.585 3.612103
69.590 3.573804
69.595 3.105765
69.600 2.639307
69.605 2.396965
69.610 2.625459
69.615 2.534983
69.620 2.31515
69.625 2.392844
69.630 2.847689
69.635 3.161565
69.640 3.242294
69.645 3.08677
69.650 3.146338
69.655 3.248915
69.660 3.082068
69.665 2.974152
69.670 3.063868
69.675 3.007859
69.680 2.897699
69.685 2.854799
69.690 3.002914
69.695 3.080384
69.700 2.941208
69.705 2.664855
69.710 2.279056
69.715 2.153864
69.720 2.226227
69.725 2.236083
69.730 2.364773
69.735 2.169183
69.740 2.257132
69.745 2.513638
69.750 2.737056
69.755 2.664143
69.760 2.491226
69.765 2.412798
69.770 2.529948
69.775 2.544097
69.780 2.608465
69.785 2.142658
69.790 2.070415
69.795 2.404667
69.800 2.659742
69.805 2.774424
69.810 2.878118
69.815 3.299399
69.820 3.60898
69.825 3.731775
69.830 3.415036
69.835 3.171021
69.840 3.249917
69.845 2.91588
69.850 2.565997
69.855 2.423122
69.860 2.628266
69.865 3.014369
69.870 3.192927
69.875 3.232452
69.880 3.175021
69.885 3.18194
69.890 3.050998
69.895 2.595233
69.900 2.564216
69.905 2.435809
69.910 2.647885
69.915 2.771089
69.920 2.556937
69.925 2.673279
69.930 2.698745
69.935 2.330978
69.940 2.403169
69.945 2.353813
69.950 2.362938
69.955 2.549309
69.960 2.524416
69.965 2.679961
69.970 2.858792
69.975 2.880381
69.980 2.908471
69.985 2.952801
69.990 2.857778
69.995 2.791762
70.000 2.542899
70.005 2.415255
70.010 2.630362
70.015 2.556494
70.020 2.738397
70.025 2.75385
70.030 2.786957
70.035 2.911284
70.040 2.895813
70.045 2.727419
70.050 2.742947
70.055 2.64589
70.060 3.08998
70.065 3.391678
70.070 3.487536
70.075 3.392916
70.080 3.358633
70.085 3.488043
70.090 3.40302
70.095 3.276299
70.100 3.059102
70.105 2.845518
70.110 2.728545
70.115 2.910199
70.120 3.089958
70.125 3.153272
70.130 2.83291
70.135 2.923109
70.140 3.050267
70.145 2.964389
70.150 2.57939
70.155 2.507276
70.160 2.51715
70.165 2.499872
70.170 2.548598
70.175 2.617211
70.180 2.832525
70.185 2.78754
70.190 2.548259
70.195 2.495107
70.200 2.406905
70.205 2.167523
70.210 2.14064
70.215 1.806618
70.220 1.808785
70.225 1.961979
70.230 2.188866
70.235 2.355547
70.240 2.224656
70.245 2.338422
70.250 2.692643
70.255 3.175077
70.260 3.231585
70.265 3.306669
70.270 3.301404
70.275 3.386477
70.280 3.209295
70.285 2.948613
70.290 2.502194
70.295 2.393794
70.300 1.989219
70.305 2.103768
70.310 2.144801
70.315 2.251481
70.320 2.492866
70.325 2.656512
70.330 2.729411
70.335 2.797649
70.340 2.866971
70.345 2.899865
70.350 3.135738
70.355 3.036506
70.360 3.088178
70.365 2.986631
70.370 2.996658
70.375 2.983057
70.380 2.885061
70.385 2.582551
70.390 2.798249
70.395 2.764078
70.400 2.882104
70.405 2.753573
70.410 2.667769
70.415 2.547711
70.420 2.396501
70.425 2.073432
70.430 2.102126
70.435 1.957626
70.440 2.297991
70.445 2.527704
70.450 2.497566
70.455 2.406688
70.460 2.638475
70.465 2.696744
70.470 3.099711
70.475 3.302587
70.480 3.27702
70.485 3.501471
70.490 3.4016
70.495 3.223116
70.500 3.431391
70.505 3.329851
70.510 2.960881
70.515 2.932204
70.520 2.884031
70.525 3.047201
70.530 2.968649
70.535 3.038193
70.540 3.03392
70.545 3.282417
70.550 3.199796
70.555 3.416339
70.560 3.422305
70.565 3.145356
70.570 2.878893
70.575 2.466784
70.580 2.653244
70.585 2.91192
70.590 2.757936
70.595 2.698027
70.600 2.702586
70.605 2.638639
70.610 2.561026
70.615 2.275611
70.620 2.25488
70.625 2.150376
70.630 2.277029
70.635 2.355544
70.640 2.157968
70.645 2.296478
70.650 2.23408
70.655 2.352908
70.660 2.402573
70.665 2.360807
70.670 2.526857
70.675 2.588525
70.680 2.357883
70.685 2.278461
70.690 2.191285
70.695 2.326177
70.700 2.328512
70.705 2.338807
70.710 2.471684
70.715 2.815641
70.720 3.033173
70.725 2.93277
70.730 2.841743
70.735 2.766636
70.740 2.631405
70.745 2.774864
70.750 2.805705
70.755 2.594004
70.760 2.606908
70.765 2.752338
70.770 2.803891
70.775 2.974247
70.780 2.846467
70.785 2.788897
70.790 2.887815
70.795 2.849321
70.800 2.744394
70.805 2.614127
70.810 2.304455
70.815 2.244349
70.820 2.029001
70.825 2.009403
70.830 2.083048
70.835 2.243305
70.840 2.290193
70.845 2.350112
70.850 2.358991
70.855 2.532758
70.860 2.636462
70.865 2.534701
70.870 2.503789
70.875 2.708399
70.880 2.949418
70.885 2.996944
70.890 2.996469
70.895 3.181851
70.900 3.023975
70.905 3.015174
70.910 2.820018
70.915 2.762915
70.920 3.096712
70.925 3.19125
70.930 3.251379
70.935 3.26126
70.940 3.355983
70.945 3.650798
70.950 3.643178
70.955 3.394382
70.960 3.108041
70.965 3.423154
70.970 3.56175
70.975 3.492782
70.980 3.39702
70.985 3.241125
70.990 3.183018
70.995 3.034986
71.000 3.150258
71.005 3.218221
71.010 3.132429
71.015 3.096792
71.020 3.307598
71.025 3.649511
71.030 3.657626
71.035 3.348457
71.040 3.490639
71.045 3.392001
71.050 3.614276
71.055 3.132327
71.060 3.130629
71.065 3.297277
71.070 3.257803
71.075 3.122831
71.080 3.161826
71.085 3.103519
71.090 3.167186
71.095 3.149468
71.100 3.178671
71.105 3.370212
71.110 3.426447
71.115 3.628291
71.120 3.680547
71.125 3.622777
71.130 3.375035
71.135 3.368688
71.140 3.247818
71.145 2.932259
71.150 2.68695
71.155 2.467628
71.160 2.253331
71.165 1.996168
71.170 1.768119
71.175 1.690282
71.180 1.765014
71.185 1.798915
71.190 2.190794
71.195 2.506803
71.200 2.696377
71.205 2.685118
71.210 2.796242
71.215 2.921545
71.220 3.067271
71.225 2.884474
71.230 3.030178
71.235 2.860966
71.240 2.751883
71.245 2.575991
71.250 2.090089
71.255 1.761316
71.260 1.77635
71.265 1.659729
71.270 1.975549
71.275 2.076653
71.280 2.287296
71.285 2.590985
71.290 2.739643
71.295 2.766807
71.300 2.472532
71.305 2.356527
71.310 2.684747
71.315 2.724297
71.320 2.894799
71.325 3.238684
71.330 3.31948
71.335 3.482728
71.340 3.539479
71.345 3.362653
71.350 3.355748
71.355 3.037963
71.360 3.034294
71.365 2.984579
71.370 2.915374
71.375 2.724897
71.380 2.682195
71.385 2.623571
71.390 2.586329
71.395 2.340739
71.400 2.303643
71.405 2.597498
71.410 2.582618
71.415 2.557667
71.420 2.671141
71.425 2.657803
71.430 2.571696
71.435 2.555915
71.440 2.538872
71.445 2.543411
71.450 2.553244
71.455 2.33593
71.460 2.261171
71.465 2.339122
71.470 2.275103
71.475 2.29151
71.480 2.378829
71.485 2.366394
71.490 2.557168
71.495 2.676629
71.500 2.730309
71.505 2.838647
71.510 2.797296
71.515 2.703529
71.520 2.71205
71.525 2.681295
71.530 2.571103
71.535 2.170012
71.540 1.922251
71.545 1.752171
71.550 1.642989
71.555 1.512363
71.560 1.532447
71.565 1.900494
71.570 2.314603
71.575 2.352668
71.580 2.618904
71.585 2.793457
71.590 2.992771
71.595 2.862336
71.600 2.896276
71.605 2.833111
71.610 2.784727
71.615 2.544051
71.620 2.242485
71.625 2.288265
71.630 2.437965
71.635 1.942232
71.640 2.117076
71.645 2.081524
71.650 2.203075
71.655 2.52149
71.660 2.478932
71.665 2.501445
71.670 2.508188
71.675 2.172383
71.680 2.262446
71.685 2.321718
71.690 2.389954
71.695 2.589176
71.700 2.70116
71.705 2.674159
71.710 2.782023
71.715 2.6984
71.720 2.568361
71.725 2.309358
71.730 2.160502
71.735 1.918049
71.740 2.021643
71.745 2.001329
71.750 2.13682
71.755 2.23281
71.760 2.383407
71.765 2.533206
71.770 2.619634
71.775 2.665282
71.780 2.945814
71.785 2.921208
71.790 2.706108
71.795 2.434275
71.800 2.2528
71.805 2.173499
71.810 2.187045
71.815 1.887719
71.820 1.675894
71.825 1.672937
71.830 1.945012
71.835 1.912605
71.840 2.249543
71.845 2.448128
71.850 2.577128
71.855 2.777565
71.860 2.616905
71.865 2.391537
71.870 2.389379
71.875 2.16538
71.880 2.058448
71.885 2.405109
71.890 2.521626
71.895 2.635303
71.900 2.602563
71.905 2.558742
71.910 2.429184
71.915 2.370822
71.920 2.062976
71.925 2.111505
71.930 2.170315
71.935 2.324197
71.940 2.284181
71.945 2.333453
71.950 2.15848
71.955 2.015093
71.960 2.014358
71.965 1.958772
71.970 2.288579
71.975 2.495197
71.980 2.638763
71.985 3.050502
71.990 3.205411
71.995 3.086529
72.000 2.9225
72.005 2.616584
72.010 2.479802
72.015 2.221673
72.020 1.7089
72.025 1.88883
72.030 2.123239
72.035 2.342066
72.040 2.34946
72.045 2.117469
72.050 2.291087
72.055 2.638905
72.060 2.478011
72.065 2.540085
72.070 2.714608
72.075 2.701742
72.080 2.697805
72.085 2.592447
72.090 2.414183
72.095 2.518285
72.100 2.333123
72.105 2.169256
72.110 2.224568
72.115 2.34723
72.120 2.4933
72.125 2.458701
72.130 2.505352
72.135 2.484451
72.140 2.620728
72.145 2.661373
72.150 2.531199
72.155 2.360981
72.160 2.320443
72.165 2.512411
72.170 2.842174
72.175 2.711041
72.180 2.845212
72.185 3.191156
72.190 3.0429
72.195 3.135503
72.200 2.957031
72.205 2.636897
72.210 2.685872
72.215 2.446834
72.220 2.276967
72.225 2.428658
72.230 2.086656
72.235 2.207239
72.240 2.505717
72.245 2.65107
72.250 2.921026
72.255 2.815845
72.260 2.800474
72.265 2.871773
72.270 2.63108
72.275 2.339373
72.280 2.182868
72.285 2.163574
72.290 2.198538
72.295 2.193485
72.300 2.254023
72.305 2.48252
72.310 2.479357
72.315 2.571421
72.320 2.7237
72.325 2.790016
72.330 2.822052
72.335 2.837424
72.340 2.914363
72.345 2.863255
72.350 2.860936
72.355 2.521183
72.360 2.496718
72.365 2.321282
72.370 2.059076
72.375 2.149151
72.380 2.118824
72.385 1.89864
72.390 1.77001
72.395 1.753971
72.400 1.697248
72.405 1.661258
72.410 1.495487
72.415 1.586174
72.420 1.574541
72.425 1.551702
72.430 1.741321
72.435 2.23349
72.440 2.359766
72.445 2.397503
72.450 2.456488
72.455 2.796994
72.460 2.774406
72.465 2.361752
72.470 2.145853
72.475 2.40306
72.480 2.520282
72.485 2.590142
72.490 2.610481
72.495 2.692387
72.500 2.633639
72.505 2.401211
72.510 1.881498
72.515 1.909997
72.520 1.591273
72.525 1.370516
72.530 1.511708
72.535 1.628593
72.540 1.672098
72.545 1.638601
72.550 1.48818
72.555 1.606612
72.560 1.68831
72.565 1.689518
72.570 1.765385
72.575 2.040956
72.580 2.23771
72.585 2.322443
72.590 2.445185
72.595 2.381586
72.600 2.520892
72.605 2.626153
72.610 2.525622
72.615 2.464486
72.620 2.318297
72.625 2.416064
72.630 2.432911
72.635 2.438768
72.640 2.269399
72.645 2.233943
72.650 2.221343
72.655 2.161642
72.660 2.229469
72.665 2.229543
72.670 2.197327
72.675 2.087679
72.680 2.118394
72.685 2.103855
72.690 2.148697
72.695 1.860084
72.700 1.674161
72.705 1.882751
72.710 1.994153
72.715 2.354754
72.720 2.58935
72.725 2.703944
72.730 3.096749
72.735 3.19381
72.740 2.885082
72.745 2.691551
72.750 2.321884
72.755 2.142729
72.760 2.169282
72.765 1.947554
72.770 1.960194
72.775 2.058346
72.780 2.200407
72.785 2.332426
72.790 2.220842
72.795 1.995705
72.800 1.966211
72.805 2.143245
72.810 2.291121
72.815 2.155326
72.820 2.144521
72.825 2.31085
72.830 2.39198
72.835 2.540138
72.840 2.605012
72.845 2.548357
72.850 2.652053
72.855 2.455905
72.860 2.490993
72.865 2.197363
72.870 2.129952
72.875 1.99549
72.880 2.127004
72.885 2.142052
72.890 2.038389
72.895 1.896365
72.900 1.88423
72.905 1.681728
72.910 1.733912
72.915 1.737347
72.920 1.921212
72.925 2.14118
72.930 2.045184
72.935 2.147879
72.940 2.144647
72.945 1.94289
72.950 1.895316
72.955 1.908925
72.960 2.231561
72.965 2.498641
72.970 2.504809
72.975 2.480926
72.980 2.680861
72.985 2.847416
72.990 2.76209
72.995 2.721799
73.000 2.85738
73.005 2.942569
73.010 3.01571
73.015 2.696131
73.020 2.500234
73.025 2.324367
73.030 2.402934
73.035 2.380695
73.040 2.214978
73.045 2.314731
73.050 2.180236
73.055 2.169701
73.060 2.03192
73.065 1.999316
73.070 2.182643
73.075 2.223824
73.080 2.177382
73.085 2.312752
73.090 2.482825
73.095 2.904701
73.100 2.554382
73.105 2.488467
73.110 2.589456
73.115 2.635776
73.120 2.679664
73.125 2.646691
73.130 2.358783
73.135 2.733314
73.140 3.001568
73.145 2.798817
73.150 2.69409
73.155 2.515678
73.160 2.322047
73.165 2.221963
73.170 1.72848
73.175 1.409497
73.180 1.417907
73.185 1.412308
73.190 1.472429
73.195 1.553699
73.200 1.625569
73.205 1.804463
73.210 1.914396
73.215 1.956916
73.220 2.121953
73.225 2.303139
73.230 2.311087
73.235 2.211339
73.240 2.039852
73.245 2.066202
73.250 2.071017
73.255 1.959979
73.260 1.683311
73.265 1.686745
73.270 1.640957
73.275 1.550176
73.280 1.387146
73.285 1.292832
73.290 1.256927
73.295 1.381967
73.300 1.486746
73.305 1.797704
73.310 2.14029
73.315 2.155158
73.320 2.212789
73.325 2.29197
73.330 2.135035
73.335 2.06293
73.340 2.058364
73.345 2.160629
73.350 2.438075
73.355 2.415538
73.360 2.448223
73.365 2.597579
73.370 2.496005
73.375 2.322591
73.380 2.226995
73.385 2.180686
73.390 2.077623
73.395 1.977791
73.400 1.935864
73.405 2.052422
73.410 2.165351
73.415 2.170722
73.420 2.225767
73.425 2.396642
73.430 2.507165
73.435 2.691229
73.440 2.530005
73.445 2.403743
73.450 2.383105
73.455 2.233795
73.460 2.501246
73.465 2.6457
73.470 2.72215
73.475 2.838049
73.480 2.691246
73.485 2.90007
73.490 2.948389
73.495 2.757036
73.500 2.718642
73.505 2.643538
73.510 2.760193
73.515 2.770972
73.520 2.817153
73.525 2.754714
73.530 2.575186
73.535 2.395496
73.540 2.578858
73.545 2.686804
73.550 2.674727
73.555 2.448297
73.560 2.267782
73.565 2.217484
73.570 2.177626
73.575 2.175057
73.580 2.39536
73.585 2.379736
73.590 2.4112
73.595 2.690544
73.600 2.863871
73.605 2.840952
73.610 2.66446
73.615 2.438549
73.620 2.159518
73.625 2.045621
73.630 2.053284
73.635 2.178536
73.640 2.27206
73.645 2.26897
73.650 2.266855
73.655 2.392103
73.660 2.414357
73.665 2.124983
73.670 1.934635
73.675 1.922334
73.680 1.924314
73.685 2.075807
73.690 2.154372
73.695 2.14459
73.700 2.017499
73.705 1.937288
73.710 2.161215
73.715 2.613853
73.720 2.692638
73.725 2.795768
73.730 3.027807
73.735 3.085917
73.740 3.183627
73.745 2.855235
73.750 2.578749
73.755 2.488108
73.760 2.22754
73.765 2.168039
73.770 2.157659
73.775 2.057644
73.780 2.251857
73.785 2.055678
73.790 2.166785
73.795 2.571839
73.800 2.691417
73.805 2.627034
73.810 2.425103
73.815 2.066608
73.820 1.91571
73.825 1.835053
73.830 1.534281
73.835 1.40841
73.840 1.561788
73.845 1.777214
73.850 1.910909
73.855 1.81616
73.860 1.635024
73.865 1.495579
73.870 1.743317
73.875 1.845868
73.880 1.688771
73.885 1.888941
73.890 2.377192
73.895 2.645432
73.900 2.781861
73.905 2.600513
73.910 2.669484
73.915 2.650889
73.920 2.454033
73.925 2.320523
73.930 2.199332
73.935 2.259815
73.940 2.145653
73.945 2.274084
73.950 2.242039
73.955 2.328546
73.960 2.41246
73.965 2.258167
73.970 2.283109
73.975 2.356915
73.980 2.242146
73.985 2.302693
73.990 2.410098
73.995 2.383086
74.000 2.287684
74.005 2.169451
74.010 2.100381
74.015 2.125045
74.020 2.26765
74.025 2.036549
74.030 2.146997
74.035 2.182293
74.040 2.167861
74.045 2.112338
74.050 2.053603
74.055 1.967607
74.060 2.355667
74.065 2.286658
74.070 2.297187
74.075 2.367556
74.080 2.298115
74.085 2.40354
74.090 2.432194
74.095 2.147093
74.100 2.403281
74.105 2.482728
74.110 2.712849
74.115 2.826954
74.120 2.378443
74.125 2.180387
74.130 1.932728
74.135 1.74699
74.140 1.602681
74.145 1.491635
74.150 1.559833
74.155 1.527177
74.160 1.637239
74.165 1.793625
74.170 1.853215
74.175 1.94695
74.180 1.891817
74.185 1.92333
74.190 2.294084
74.195 2.259175
74.200 2.465988
74.205 2.653513
74.210 2.512516
74.215 2.373029
74.220 2.244244
74.225 2.115869
74.230 1.888128
74.235 1.596507
74.240 1.462771
74.245 1.493557
74.250 1.682307
74.255 1.749715
74.260 2.079785
74.265 2.270431
74.270 2.406589
74.275 2.449774
74.280 2.42752
74.285 2.481678
74.290 2.527142
74.295 2.427353
74.300 2.451848
74.305 2.393561
74.310 2.415276
74.315 2.339044
74.320 2.328119
74.325 2.361628
74.330 2.250679
74.335 2.271837
74.340 2.363805
74.345 2.345227
74.350 2.39379
74.355 1.956077
74.360 1.871844
74.365 1.936186
74.370 1.756228
74.375 1.712456
74.380 1.69001
74.385 1.593398
74.390 1.412321
74.395 1.301679
74.400 1.51811
74.405 1.635749
74.410 1.769207
74.415 2.000091
74.420 2.204718
74.425 2.29735
74.430 2.497571
74.435 2.501044
74.440 2.366129
74.445 2.387573
74.450 2.38318
74.455 2.460013
74.460 2.999026
74.465 2.959284
74.470 2.864751
74.475 2.710373
74.480 2.558646
74.485 2.508758
74.490 2.403522
74.495 2.169359
74.500 2.081721
74.505 2.327735
74.510 2.405946
74.515 2.384473
74.520 2.469204
74.525 2.191656
74.530 2.123822
74.535 2.114465
74.540 1.882945
74.545 1.923587
74.550 1.876303
74.555 1.902626
74.560 2.00674
74.565 2.123958
74.570 2.224763
74.575 2.300556
74.580 2.295509
74.585 2.161
74.590 2.107842
74.595 2.053004
74.600 2.34085
74.605 2.448431
74.610 2.278895
74.615 2.278766
74.620 2.28423
74.625 2.364713
74.630 2.475179
74.635 2.101286
74.640 2.122979
74.645 2.513591
74.650 2.713892
74.655 2.738927
74.660 2.566117
74.665 2.403472
74.670 2.356985
74.675 2.213911
74.680 1.89614
74.685 1.825516
74.690 1.858447
74.695 1.824931
74.700 1.904798
74.705 2.016065
74.710 1.997863
74.715 1.984745
74.720 1.934595
74.725 1.90849
74.730 1.823832
74.735 1.787901
74.740 1.711821
74.745 1.728185
74.750 1.689649
74.755 1.865823
74.760 1.975556
74.765 2.233215
74.770 2.340067
74.775 2.305724
74.780 2.170638
74.785 2.03552
74.790 1.877013
74.795 1.814913
74.800 1.531772
74.805 1.475893
74.810 1.860259
74.815 1.950966
74.820 2.162118
74.825 2.220336
74.830 2.206199
74.835 2.204533
74.840 2.225965
74.845 2.087019
74.850 2.100238
74.855 1.912663
74.860 2.007069
74.865 2.084827
74.870 2.181397
74.875 1.99275
74.880 1.915353
74.885 2.142877
74.890 1.952251
74.895 1.750399
74.900 1.722187
74.905 1.868684
74.910 2.014827
74.915 2.100207
74.920 2.124487
74.925 2.270692
74.930 2.623944
74.935 2.579897
74.940 2.538619
74.945 2.592546
74.950 2.561228
74.955 2.556581
74.960 2.525936
74.965 2.592116
74.970 2.578015
74.975 2.551786
74.980 2.520392
74.985 2.41072
74.990 2.601223
74.995 2.520144
75.000 2.379219
