!@!!GADDS PLOTSO FILE: Chi integration type
!@!!Title/SampleName: map-13c
!@!!Comment: ?
!@!!User: Bruker Instrument Administrator
!@!!Site: University of Illinois Chicago
!@!!Frame: map-13c_01_000.gfrm
!@!!Wavelengths    1.54184   1.54056   1.54439
!@!!Frame angles: 2Theta: 65.000 Omega: 50.000 Phi: 0.000 Chi: 90.000
!@!!Integration range: 2Theta: 55.000 to 75.000  Gamma: -105.000 to -75.000
!@!!Integration method: bin normalized
!@!N
!@!SS
!@!M
!@!L 0.0 0.0 0.0 0.0
!@!XDegrees
!@!YCounts
55.000 3.189453
55.005 3.04831
55.010 3.188317
55.015 3.200611
55.020 3.269263
55.025 3.419244
55.030 3.672059
55.035 3.778527
55.040 3.994262
55.045 4.144152
55.050 4.130706
55.055 4.071274
55.060 3.759285
55.065 3.655828
55.070 3.795415
55.075 3.709966
55.080 3.744624
55.085 3.762061
55.090 3.923589
55.095 4.050991
55.100 3.874334
55.105 3.545043
55.110 3.295305
55.115 3.293452
55.120 3.39619
55.125 3.600428
55.130 3.652307
55.135 4.196762
55.140 4.395141
55.145 4.652036
55.150 4.748706
55.155 4.670161
55.160 4.703012
55.165 4.526332
55.170 4.185685
55.175 4.222577
55.180 3.985397
55.185 3.654511
55.190 3.46411
55.195 3.30851
55.200 3.320215
55.205 3.295232
55.210 3.107432
55.215 3.243239
55.220 3.544518
55.225 3.485873
55.230 3.58882
55.235 3.703744
55.240 4.081839
55.245 4.613709
55.250 4.827062
55.255 4.915973
55.260 5.052863
55.265 5.034158
55.270 4.947758
55.275 4.525922
55.280 4.224772
55.285 4.134392
55.290 4.128092
55.295 3.913901
55.300 3.698388
55.305 3.823371
55.310 3.817541
55.315 3.58141
55.320 3.233254
55.325 3.092243
55.330 3.270956
55.335 3.414438
55.340 3.258589
55.345 3.256749
55.350 3.472685
55.355 3.764982
55.360 3.869783
55.365 3.99099
55.370 4.068744
55.375 4.295213
55.380 4.651102
55.385 4.563385
55.390 4.703543
55.395 5.003885
55.400 4.926819
55.405 4.649422
55.410 4.259127
55.415 3.910425
55.420 4.093798
55.425 3.545151
55.430 3.147202
55.435 3.267037
55.440 3.68938
55.445 3.552958
55.450 3.277706
55.455 2.942968
55.460 2.89392
55.465 3.047136
55.470 2.909438
55.475 3.170527
55.480 3.488887
55.485 3.774211
55.490 4.2723
55.495 4.57891
55.500 4.743298
55.505 4.746027
55.510 4.728679
55.515 4.847873
55.520 4.998288
55.525 4.9607
55.530 5.245817
55.535 5.106223
55.540 5.202316
55.545 5.113592
55.550 5.081352
55.555 4.707529
55.560 4.311395
55.565 4.150503
55.570 3.95014
55.575 3.800945
55.580 3.785117
55.585 3.611713
55.590 3.742212
55.595 3.912478
55.600 4.056274
55.605 4.243397
55.610 3.932518
55.615 3.752189
55.620 3.495298
55.625 3.523376
55.630 3.192365
55.635 2.920565
55.640 2.968591
55.645 3.120313
55.650 3.271774
55.655 3.525737
55.660 3.450654
55.665 3.501244
55.670 3.611728
55.675 3.699469
55.680 3.695537
55.685 3.972867
55.690 3.955557
55.695 3.946969
55.700 3.774327
55.705 3.911642
55.710 3.963054
55.715 3.828776
55.720 3.765672
55.725 4.101733
55.730 4.148866
55.735 3.858231
55.740 3.56837
55.745 3.356351
55.750 3.763638
55.755 3.853074
55.760 3.453705
55.765 3.586331
55.770 3.714424
55.775 3.887066
55.780 4.028932
55.785 3.718553
55.790 3.654488
55.795 3.563527
55.800 3.592406
55.805 3.874874
55.810 3.819847
55.815 3.774327
55.820 3.704021
55.825 4.092185
55.830 4.398608
55.835 4.825349
55.840 4.8603
55.845 4.813931
55.850 4.583807
55.855 4.516786
55.860 4.401663
55.865 4.010772
55.870 3.455237
55.875 3.744525
55.880 3.739134
55.885 4.268984
55.890 4.222155
55.895 4.365404
55.900 4.63922
55.905 4.635966
55.910 4.486431
55.915 4.670814
55.920 4.385099
55.925 4.774838
55.930 4.567501
55.935 4.690517
55.940 4.548515
55.945 4.59611
55.950 4.370862
55.955 4.736862
55.960 4.543828
55.965 4.906508
55.970 4.934805
55.975 5.04498
55.980 5.25324
55.985 5.158784
55.990 4.642321
55.995 4.819958
56.000 4.684407
56.005 4.609297
56.010 4.661766
56.015 4.483394
56.020 4.552686
56.025 4.368227
56.030 4.383328
56.035 4.760766
56.040 4.799487
56.045 4.572881
56.050 4.516754
56.055 4.347292
56.060 4.060704
56.065 3.883613
56.070 3.510692
56.075 3.334756
56.080 3.476003
56.085 3.373366
56.090 3.702264
56.095 3.838781
56.100 3.982004
56.105 3.992279
56.110 3.912715
56.115 3.762799
56.120 3.631448
56.125 3.511588
56.130 3.529924
56.135 3.418593
56.140 3.633671
56.145 3.929421
56.150 4.444867
56.155 4.597237
56.160 4.926611
56.165 4.644533
56.170 4.678459
56.175 4.908349
56.180 4.954679
56.185 4.613075
56.190 4.589731
56.195 4.461656
56.200 4.701488
56.205 4.485495
56.210 4.344652
56.215 4.44003
56.220 4.617534
56.225 5.230114
56.230 5.424854
56.235 5.399021
56.240 5.353267
56.245 5.134584
56.250 5.152754
56.255 4.792427
56.260 4.263542
56.265 3.856809
56.270 3.789144
56.275 3.958999
56.280 3.994294
56.285 3.971753
56.290 4.246773
56.295 4.642049
56.300 4.804097
56.305 5.007168
56.310 4.744254
56.315 4.613523
56.320 4.516695
56.325 4.041171
56.330 3.875658
56.335 3.835397
56.340 3.740469
56.345 3.757109
56.350 4.027569
56.355 4.164118
56.360 4.2325
56.365 4.224572
56.370 3.916161
56.375 3.758988
56.380 3.62664
56.385 3.33219
56.390 3.517267
56.395 3.460076
56.400 3.667661
56.405 3.656271
56.410 3.72628
56.415 3.714136
56.420 3.789822
56.425 3.886456
56.430 3.936747
56.435 3.494504
56.440 3.611744
56.445 3.491046
56.450 3.700401
56.455 3.670948
56.460 3.354028
56.465 3.568045
56.470 3.64504
56.475 3.500989
56.480 3.558527
56.485 3.39066
56.490 3.154438
56.495 3.014518
56.500 3.075999
56.505 3.238648
56.510 3.632359
56.515 3.924509
56.520 4.036054
56.525 4.338327
56.530 4.275165
56.535 4.078941
56.540 3.98218
56.545 3.365869
56.550 3.202397
56.555 3.097121
56.560 2.983799
56.565 3.394915
56.570 3.830403
56.575 4.15745
56.580 4.210145
56.585 4.144816
56.590 4.185393
56.595 3.948923
56.600 3.886081
56.605 3.397299
56.610 3.279154
56.615 3.394062
56.620 3.302815
56.625 3.428407
56.630 3.467331
56.635 3.1029
56.640 3.361593
56.645 3.477029
56.650 3.406117
56.655 3.888661
56.660 4.036704
56.665 3.980211
56.670 4.037871
56.675 4.080153
56.680 4.236896
56.685 4.052433
56.690 3.890234
56.695 3.600198
56.700 3.91211
56.705 4.44943
56.710 4.533251
56.715 4.395034
56.720 4.377306
56.725 4.061971
56.730 4.19181
56.735 4.362038
56.740 3.968913
56.745 3.945778
56.750 3.965565
56.755 4.033809
56.760 4.255127
56.765 4.393764
56.770 4.420496
56.775 4.281769
56.780 4.450739
56.785 4.33648
56.790 4.355396
56.795 4.520325
56.800 4.337112
56.805 3.977613
56.810 3.964283
56.815 3.968108
56.820 4.196904
56.825 4.050597
56.830 3.967081
56.835 4.081312
56.840 4.161424
56.845 4.34557
56.850 4.098709
56.855 4.232294
56.860 4.249839
56.865 4.347111
56.870 4.305457
56.875 4.191889
56.880 4.153609
56.885 4.122619
56.890 3.864991
56.895 3.850513
56.900 3.551641
56.905 3.618823
56.910 3.753222
56.915 3.79141
56.920 3.846313
56.925 3.739767
56.930 3.662258
56.935 3.543031
56.940 3.439763
56.945 3.534496
56.950 3.528351
56.955 3.523065
56.960 3.488804
56.965 3.478884
56.970 3.756353
56.975 4.152137
56.980 3.994445
56.985 3.800344
56.990 3.754158
56.995 3.682755
57.000 3.447994
57.005 3.214261
57.010 2.932498
57.015 3.110814
57.020 3.245559
57.025 3.466243
57.030 3.804837
57.035 4.08595
57.040 4.165312
57.045 4.17912
57.050 3.962933
57.055 4.132022
57.060 4.024165
57.065 3.998866
57.070 4.040825
57.075 3.714907
57.080 3.703486
57.085 4.001182
57.090 4.091261
57.095 3.957003
57.100 3.998806
57.105 4.146661
57.110 4.116779
57.115 4.052861
57.120 3.723697
57.125 3.588727
57.130 3.712473
57.135 3.666625
57.140 3.720886
57.145 3.914104
57.150 4.143267
57.155 4.544815
57.160 4.564494
57.165 4.543768
57.170 4.351255
57.175 4.37855
57.180 4.560209
57.185 4.127157
57.190 3.752203
57.195 3.720207
57.200 3.720548
57.205 3.727456
57.210 3.588675
57.215 3.444795
57.220 3.73754
57.225 3.876217
57.230 3.730809
57.235 3.652185
57.240 3.901189
57.245 3.842357
57.250 3.918684
57.255 4.211945
57.260 4.272868
57.265 4.498941
57.270 4.837679
57.275 5.006598
57.280 4.716957
57.285 4.521463
57.290 4.463192
57.295 4.346895
57.300 4.224065
57.305 3.846289
57.310 3.781142
57.315 3.847536
57.320 3.577383
57.325 3.395884
57.330 3.347211
57.335 3.384162
57.340 3.407727
57.345 3.46664
57.350 4.00315
57.355 4.297889
57.360 4.195971
57.365 4.074519
57.370 3.957534
57.375 3.858282
57.380 3.692288
57.385 3.447209
57.390 3.391683
57.395 3.493076
57.400 3.539503
57.405 3.662817
57.410 3.943627
57.415 3.70807
57.420 3.365631
57.425 3.359291
57.430 3.681427
57.435 3.905178
57.440 3.783361
57.445 3.612333
57.450 3.800627
57.455 3.982246
57.460 4.05994
57.465 3.522738
57.470 3.378559
57.475 3.466716
57.480 3.650205
57.485 4.374106
57.490 4.269595
57.495 4.535415
57.500 4.952131
57.505 4.960011
57.510 5.055538
57.515 4.476315
57.520 4.117484
57.525 4.17599
57.530 3.7723
57.535 3.370029
57.540 3.433697
57.545 3.515005
57.550 3.656699
57.555 3.766871
57.560 3.755101
57.565 4.219384
57.570 4.307654
57.575 4.171409
57.580 4.536474
57.585 4.529819
57.590 4.353218
57.595 4.179977
57.600 3.92655
57.605 3.818305
57.610 3.69436
57.615 3.83462
57.620 4.140862
57.625 4.3081
57.630 4.379357
57.635 4.727029
57.640 4.990289
57.645 4.857148
57.650 4.332365
57.655 3.889679
57.660 3.949465
57.665 4.10318
57.670 3.914088
57.675 3.861137
57.680 3.908903
57.685 3.694547
57.690 3.508028
57.695 3.480825
57.700 3.441822
57.705 3.47361
57.710 3.309316
57.715 3.328894
57.720 3.591353
57.725 3.644999
57.730 3.806828
57.735 4.156224
57.740 4.181209
57.745 4.340814
57.750 4.099865
57.755 4.315742
57.760 4.351439
57.765 3.830799
57.770 3.83199
57.775 4.092931
57.780 4.164853
57.785 4.594741
57.790 4.706543
57.795 5.030378
57.800 5.110477
57.805 5.156718
57.810 5.11879
57.815 5.060762
57.820 4.661634
57.825 4.501516
57.830 4.218144
57.835 4.064426
57.840 3.847567
57.845 3.770231
57.850 3.7207
57.855 4.04854
57.860 4.38272
57.865 4.769821
57.870 4.721229
57.875 4.607237
57.880 4.635852
57.885 4.624774
57.890 4.48486
57.895 3.858691
57.900 3.438954
57.905 3.778319
57.910 3.613709
57.915 3.524389
57.920 3.79516
57.925 3.469954
57.930 3.595292
57.935 3.692253
57.940 3.374287
57.945 3.669359
57.950 3.605737
57.955 3.563201
57.960 3.810777
57.965 3.550389
57.970 3.447856
57.975 3.332805
57.980 3.010174
57.985 2.910285
57.990 3.06996
57.995 3.170817
58.000 3.246017
58.005 3.409502
58.010 3.909809
58.015 4.45793
58.020 4.735824
58.025 4.548534
58.030 4.745001
58.035 4.855011
58.040 4.922664
58.045 4.74186
58.050 4.868735
58.055 4.588617
58.060 4.477044
58.065 4.335233
58.070 4.413289
58.075 4.566691
58.080 4.471513
58.085 4.547633
58.090 4.879673
58.095 4.844383
58.100 4.97616
58.105 5.314768
58.110 5.41372
58.115 5.332897
58.120 4.995065
58.125 4.810092
58.130 5.266705
58.135 5.015296
58.140 4.520378
58.145 4.386269
58.150 4.285717
58.155 4.529207
58.160 4.633398
58.165 4.262602
58.170 4.258996
58.175 3.919512
58.180 3.833291
58.185 3.947666
58.190 3.993735
58.195 3.850363
58.200 3.874565
58.205 4.123158
58.210 4.32298
58.215 4.445841
58.220 4.133066
58.225 3.639275
58.230 3.662486
58.235 3.821721
58.240 3.769258
58.245 3.695879
58.250 3.793401
58.255 4.019459
58.260 4.276812
58.265 4.426456
58.270 4.26827
58.275 4.121881
58.280 3.805448
58.285 3.887516
58.290 4.081244
58.295 4.218427
58.300 4.232068
58.305 4.55123
58.310 5.008104
58.315 5.498593
58.320 5.41489
58.325 4.971207
58.330 4.605166
58.335 4.409198
58.340 4.110417
58.345 3.859912
58.350 3.490733
58.355 3.424743
58.360 3.824864
58.365 4.311207
58.370 4.44073
58.375 4.626142
58.380 4.850786
58.385 5.463345
58.390 5.968281
58.395 5.703357
58.400 5.39851
58.405 5.414347
58.410 5.480846
58.415 5.593505
58.420 5.21375
58.425 4.998816
58.430 5.110861
58.435 5.139637
58.440 5.01813
58.445 4.831234
58.450 4.902654
58.455 4.930398
58.460 4.846876
58.465 4.885188
58.470 4.97828
58.475 5.493998
58.480 5.455528
58.485 5.301785
58.490 5.106496
58.495 5.148666
58.500 5.263896
58.505 5.236606
58.510 4.910434
58.515 5.298005
58.520 5.263964
58.525 5.472476
58.530 5.888719
58.535 5.802728
58.540 6.019726
58.545 6.159443
58.550 5.676896
58.555 5.538702
58.560 5.166774
58.565 5.206261
58.570 5.508194
58.575 5.554144
58.580 5.568513
58.585 5.89186
58.590 6.023123
58.595 6.285009
58.600 5.968493
58.605 5.742091
58.610 6.4731
58.615 6.866701
58.620 6.950872
58.625 7.162116
58.630 7.415497
58.635 8.014194
58.640 7.845926
58.645 6.834878
58.650 6.890611
58.655 6.884476
58.660 7.241972
58.665 7.000551
58.670 6.80596
58.675 7.557506
58.680 8.363817
58.685 8.598229
58.690 8.619318
58.695 8.82381
58.700 9.557949
58.705 9.930683
58.710 10.074184
58.715 10.134566
58.720 10.364082
58.725 10.683898
58.730 10.13628
58.735 9.759129
58.740 9.373891
58.745 9.637923
58.750 9.788665
58.755 10.279191
58.760 10.784395
58.765 11.062811
58.770 10.885867
58.775 10.904541
58.780 10.523956
58.785 10.037007
58.790 10.190741
58.795 10.168612
58.800 10.360991
58.805 10.920455
58.810 10.897573
58.815 11.434816
58.820 12.286645
58.825 12.0417
58.830 11.67909
58.835 11.716348
58.840 11.185878
58.845 10.850827
58.850 10.148689
58.855 9.461758
58.860 9.332821
58.865 9.571874
58.870 9.623864
58.875 10.105251
58.880 10.347632
58.885 10.508121
58.890 10.338798
58.895 10.046703
58.900 9.914042
58.905 9.754207
58.910 9.588852
58.915 9.628564
58.920 9.661399
58.925 9.923602
58.930 9.917041
58.935 9.415531
58.940 9.31913
58.945 9.355697
58.950 8.991754
58.955 8.819973
58.960 8.682709
58.965 8.683681
58.970 9.113946
58.975 8.745401
58.980 8.704618
58.985 8.56889
58.990 8.598058
58.995 8.623139
59.000 8.860133
59.005 8.725222
59.010 8.611208
59.015 8.465278
59.020 8.494472
59.025 8.547202
59.030 8.550783
59.035 8.104372
59.040 7.286571
59.045 7.143777
59.050 6.781164
59.055 6.645653
59.060 6.042626
59.065 5.448451
59.070 5.383999
59.075 5.884321
59.080 5.917208
59.085 5.863973
59.090 5.333536
59.095 4.996374
59.100 5.284748
59.105 5.598231
59.110 6.058438
59.115 6.46516
59.120 6.984226
59.125 7.355095
59.130 7.586179
59.135 7.407657
59.140 7.0782
59.145 6.556451
59.150 6.367183
59.155 6.029744
59.160 6.049791
59.165 5.950025
59.170 5.735742
59.175 5.525876
59.180 5.482575
59.185 5.432878
59.190 5.418095
59.195 5.266036
59.200 5.235549
59.205 5.10955
59.210 5.159002
59.215 5.029919
59.220 5.012962
59.225 5.03537
59.230 4.899091
59.235 4.782887
59.240 4.836144
59.245 4.869421
59.250 4.919746
59.255 4.833329
59.260 5.106424
59.265 5.262127
59.270 5.263651
59.275 5.808481
59.280 5.751066
59.285 5.572199
59.290 5.44563
59.295 4.835846
59.300 4.629144
59.305 4.821558
59.310 4.294817
59.315 4.507149
59.320 4.303208
59.325 4.390434
59.330 4.911819
59.335 5.116491
59.340 4.865809
59.345 4.595803
59.350 4.669599
59.355 5.066902
59.360 4.970249
59.365 5.016213
59.370 4.949566
59.375 4.908153
59.380 4.967133
59.385 4.917363
59.390 4.82715
59.395 5.0493
59.400 4.61731
59.405 4.489945
59.410 4.498248
59.415 4.616698
59.420 4.420802
59.425 4.549881
59.430 4.748466
59.435 5.125111
59.440 5.161199
59.445 5.041259
59.450 4.894419
59.455 4.856217
59.460 4.585468
59.465 4.18802
59.470 3.956563
59.475 3.878825
59.480 4.23257
59.485 4.399173
59.490 4.720015
59.495 4.607079
59.500 4.56998
59.505 4.710075
59.510 4.782556
59.515 4.641174
59.520 4.714179
59.525 4.560784
59.530 4.700412
59.535 4.680352
59.540 5.017513
59.545 5.171235
59.550 5.385445
59.555 5.249372
59.560 5.013459
59.565 4.800432
59.570 4.464707
59.575 3.950379
59.580 3.662732
59.585 3.721464
59.590 3.956658
59.595 4.054821
59.600 4.151593
59.605 4.465289
59.610 4.493498
59.615 4.675417
59.620 4.46165
59.625 4.562989
59.630 4.474983
59.635 4.601021
59.640 4.473139
59.645 4.698009
59.650 4.539972
59.655 4.588158
59.660 4.556748
59.665 4.573081
59.670 4.820476
59.675 5.067793
59.680 5.042076
59.685 5.17122
59.690 4.977308
59.695 4.962837
59.700 4.958092
59.705 4.391752
59.710 3.909065
59.715 4.17378
59.720 4.161595
59.725 4.381132
59.730 4.145368
59.735 3.947106
59.740 4.06391
59.745 4.577892
59.750 4.716737
59.755 4.961205
59.760 4.735901
59.765 4.856238
59.770 5.022857
59.775 5.085279
59.780 4.554501
59.785 4.372714
59.790 4.499089
59.795 4.469238
59.800 4.590233
59.805 4.563746
59.810 4.580902
59.815 4.642229
59.820 4.243124
59.825 4.105817
59.830 4.217746
59.835 4.233449
59.840 4.297862
59.845 4.417957
59.850 4.613615
59.855 4.27917
59.860 4.047493
59.865 3.947056
59.870 3.853266
59.875 3.542478
59.880 3.438454
59.885 3.268662
59.890 3.647469
59.895 3.884532
59.900 3.952843
59.905 3.861475
59.910 4.075536
59.915 4.212967
59.920 3.985975
59.925 3.721981
59.930 3.788575
59.935 3.878742
59.940 3.889048
59.945 3.957876
59.950 4.238854
59.955 4.740775
59.960 4.831082
59.965 4.726767
59.970 4.592003
59.975 4.574979
59.980 4.433586
59.985 3.892564
59.990 3.707949
59.995 3.633155
60.000 3.815485
60.005 3.899624
60.010 4.06844
60.015 4.067539
60.020 4.083218
60.025 4.224349
60.030 4.516618
60.035 4.201449
60.040 4.186281
60.045 4.087572
60.050 4.150373
60.055 4.13369
60.060 4.039604
60.065 3.795913
60.070 3.898821
60.075 4.08206
60.080 3.887569
60.085 3.616872
60.090 3.470986
60.095 3.454569
60.100 3.435214
60.105 3.333216
60.110 3.546653
60.115 3.920156
60.120 3.958078
60.125 3.910743
60.130 4.010093
60.135 4.239734
60.140 4.642497
60.145 4.516472
60.150 4.419959
60.155 4.802072
60.160 4.944798
60.165 4.727657
60.170 4.923984
60.175 5.008171
60.180 4.954517
60.185 4.854557
60.190 4.835687
60.195 4.796064
60.200 4.519851
60.205 4.196766
60.210 3.81095
60.215 3.910738
60.220 3.830827
60.225 3.934853
60.230 4.251894
60.235 4.435027
60.240 4.406218
60.245 4.539306
60.250 4.430822
60.255 4.668878
60.260 4.728673
60.265 4.6046
60.270 4.530118
60.275 4.711802
60.280 4.379697
60.285 4.427564
60.290 4.065991
60.295 3.890655
60.300 3.840226
60.305 3.755293
60.310 3.549964
60.315 3.693953
60.320 3.552662
60.325 3.689673
60.330 3.798575
60.335 4.002995
60.340 4.203742
60.345 4.230475
60.350 4.43345
60.355 4.539918
60.360 4.426845
60.365 4.025569
60.370 4.070074
60.375 3.998709
60.380 4.20938
60.385 4.213963
60.390 4.323401
60.395 4.544798
60.400 4.95141
60.405 4.871597
60.410 4.667824
60.415 4.483933
60.420 4.486152
60.425 4.269433
60.430 4.408265
60.435 4.385832
60.440 4.618464
60.445 5.109086
60.450 5.12617
60.455 5.302128
60.460 5.351431
60.465 4.971363
60.470 5.108631
60.475 5.24453
60.480 5.347359
60.485 5.151825
60.490 4.949249
60.495 4.966845
60.500 5.031042
60.505 4.734181
60.510 4.258761
60.515 3.930934
60.520 4.18353
60.525 4.395202
60.530 4.512385
60.535 4.290212
60.540 4.182552
60.545 4.395057
60.550 4.426263
60.555 4.120507
60.560 4.147317
60.565 4.063137
60.570 4.226345
60.575 4.046102
60.580 3.940561
60.585 3.852288
60.590 4.149648
60.595 3.917791
60.600 3.691558
60.605 3.765921
60.610 3.97459
60.615 4.363286
60.620 4.517602
60.625 4.727838
60.630 4.998567
60.635 5.224267
60.640 5.317313
60.645 5.35247
60.650 5.226017
60.655 5.076529
60.660 4.68899
60.665 4.727873
60.670 4.543273
60.675 4.577178
60.680 4.630783
60.685 4.565654
60.690 4.440502
60.695 4.18228
60.700 3.944134
60.705 3.783945
60.710 3.689517
60.715 3.54236
60.720 3.506715
60.725 3.618564
60.730 3.807054
60.735 3.877852
60.740 4.199243
60.745 4.223631
60.750 4.288152
60.755 4.457409
60.760 4.583469
60.765 4.897565
60.770 5.35233
60.775 5.32019
60.780 5.272934
60.785 5.255067
60.790 5.343056
60.795 5.324105
60.800 5.391181
60.805 4.953264
60.810 4.635179
60.815 4.428983
60.820 4.438262
60.825 4.269759
60.830 4.334206
60.835 4.199305
60.840 4.282156
60.845 4.670024
60.850 5.029706
60.855 5.224931
60.860 5.418453
60.865 5.743825
60.870 5.983929
60.875 5.957417
60.880 5.893977
60.885 5.87088
60.890 5.747579
60.895 5.538548
60.900 5.373961
60.905 5.149587
60.910 5.380098
60.915 5.233701
60.920 5.16805
60.925 4.817935
60.930 4.48051
60.935 4.129539
60.940 3.950458
60.945 3.93321
60.950 4.182418
60.955 3.814944
60.960 3.855129
60.965 4.25658
60.970 4.247941
60.975 4.533073
60.980 4.416738
60.985 4.438305
60.990 4.460754
60.995 4.611004
61.000 4.52807
61.005 4.587015
61.010 4.272934
61.015 4.180645
61.020 3.852521
61.025 3.988324
61.030 4.052176
61.035 4.211917
61.040 4.149825
61.045 4.116762
61.050 4.143688
61.055 4.197516
61.060 3.894657
61.065 3.679176
61.070 3.23785
61.075 3.318174
61.080 3.648169
61.085 3.656845
61.090 3.477479
61.095 3.950763
61.100 4.258535
61.105 4.279691
61.110 4.559898
61.115 4.389365
61.120 4.514942
61.125 4.692471
61.130 4.517541
61.135 4.533628
61.140 4.616037
61.145 4.550023
61.150 4.552255
61.155 4.445292
61.160 4.308
61.165 4.368291
61.170 4.011027
61.175 3.644123
61.180 3.400629
61.185 3.445268
61.190 3.604912
61.195 3.524963
61.200 3.34968
61.205 3.396789
61.210 3.72358
61.215 3.908449
61.220 3.7639
61.225 3.853856
61.230 3.826787
61.235 3.973712
61.240 4.318365
61.245 4.170373
61.250 4.034277
61.255 4.345635
61.260 4.670829
61.265 4.98962
61.270 4.893337
61.275 4.815254
61.280 4.80889
61.285 4.787083
61.290 4.856116
61.295 5.188991
61.300 5.197459
61.305 5.204029
61.310 5.275136
61.315 5.574054
61.320 5.654834
61.325 5.499375
61.330 5.529214
61.335 5.644396
61.340 5.504063
61.345 5.385396
61.350 5.223432
61.355 5.029155
61.360 5.098939
61.365 4.73647
61.370 4.983453
61.375 5.137621
61.380 5.012021
61.385 4.824865
61.390 4.854955
61.395 4.485743
61.400 3.990655
61.405 3.759343
61.410 3.927883
61.415 4.036006
61.420 4.472941
61.425 4.886446
61.430 4.740991
61.435 4.69514
61.440 4.552539
61.445 4.329612
61.450 4.145905
61.455 3.51658
61.460 3.170981
61.465 3.202373
61.470 3.397554
61.475 3.652737
61.480 3.940918
61.485 4.273629
61.490 4.555244
61.495 4.63038
61.500 5.096671
61.505 5.018717
61.510 4.984521
61.515 4.92987
61.520 4.847239
61.525 4.780185
61.530 4.728404
61.535 4.359853
61.540 4.411924
61.545 4.400041
61.550 4.342068
61.555 4.313799
61.560 4.430394
61.565 4.412875
61.570 4.444118
61.575 4.353522
61.580 4.133454
61.585 4.249452
61.590 4.643273
61.595 4.68493
61.600 4.675826
61.605 5.018929
61.610 5.147473
61.615 5.107921
61.620 5.039005
61.625 4.847693
61.630 4.961495
61.635 5.185174
61.640 5.223016
61.645 5.750553
61.650 5.738699
61.655 5.744096
61.660 5.539956
61.665 5.521389
61.670 5.17389
61.675 4.892516
61.680 4.456966
61.685 4.324075
61.690 4.245582
61.695 4.446327
61.700 4.418126
61.705 4.609072
61.710 4.525219
61.715 4.302022
61.720 4.449614
61.725 4.244766
61.730 4.018826
61.735 4.036994
61.740 3.846643
61.745 4.051735
61.750 4.403011
61.755 4.31206
61.760 4.652994
61.765 4.585164
61.770 4.663347
61.775 4.896418
61.780 4.617736
61.785 4.144246
61.790 4.146823
61.795 3.952602
61.800 3.94431
61.805 3.817528
61.810 3.574958
61.815 3.759844
61.820 3.829975
61.825 3.945407
61.830 3.868503
61.835 4.227662
61.840 4.586236
61.845 4.69174
61.850 4.455621
61.855 4.771219
61.860 4.894369
61.865 4.921621
61.870 4.885406
61.875 4.810611
61.880 4.654569
61.885 4.830051
61.890 4.736275
61.895 4.553836
61.900 4.519505
61.905 4.370831
61.910 4.082864
61.915 4.211589
61.920 4.110618
61.925 4.238473
61.930 4.355693
61.935 4.231834
61.940 3.995559
61.945 4.007204
61.950 4.909325
61.955 5.422696
61.960 5.385355
61.965 5.303517
61.970 5.519258
61.975 5.57534
61.980 5.776022
61.985 5.078414
61.990 5.117274
61.995 5.449275
62.000 5.675288
62.005 5.73311
62.010 5.652109
62.015 5.525387
62.020 5.411586
62.025 4.683892
62.030 4.322532
62.035 4.430838
62.040 4.646274
62.045 4.647272
62.050 4.597077
62.055 4.7927
62.060 4.959968
62.065 5.003786
62.070 4.751135
62.075 4.659659
62.080 4.863543
62.085 4.850515
62.090 4.608263
62.095 4.85029
62.100 5.050024
62.105 5.186912
62.110 5.235796
62.115 5.118246
62.120 5.060674
62.125 5.098173
62.130 5.211982
62.135 5.097403
62.140 5.311275
62.145 5.527754
62.150 5.539485
62.155 5.468707
62.160 5.72759
62.165 5.676617
62.170 5.568748
62.175 5.474942
62.180 5.489455
62.185 5.629303
62.190 6.236511
62.195 5.98087
62.200 5.748182
62.205 5.783261
62.210 5.715118
62.215 5.79852
62.220 6.158928
62.225 6.001149
62.230 5.951903
62.235 6.190742
62.240 6.269536
62.245 6.168359
62.250 6.250835
62.255 6.377222
62.260 6.287083
62.265 6.274275
62.270 6.012908
62.275 5.997428
62.280 5.623085
62.285 5.053837
62.290 4.630808
62.295 4.909413
62.300 5.376481
62.305 5.782518
62.310 5.772375
62.315 5.974969
62.320 6.154456
62.325 6.043574
62.330 5.576183
62.335 5.306525
62.340 5.339748
62.345 5.54272
62.350 5.869339
62.355 5.947297
62.360 5.733553
62.365 5.831555
62.370 5.556927
62.375 5.13257
62.380 5.204318
62.385 5.237494
62.390 5.283432
62.395 5.447885
62.400 5.602436
62.405 5.566755
62.410 5.596363
62.415 5.190878
62.420 4.643113
62.425 4.182308
62.430 4.197198
62.435 4.388138
62.440 5.049702
62.445 5.03155
62.450 5.07926
62.455 5.405451
62.460 5.598748
62.465 5.430115
62.470 5.209908
62.475 4.659305
62.480 4.696434
62.485 4.858202
62.490 5.098013
62.495 5.593018
62.500 5.706783
62.505 5.871618
62.510 6.557744
62.515 6.858074
62.520 6.506956
62.525 6.527361
62.530 6.511835
62.535 6.61093
62.540 5.915916
62.545 5.209847
62.550 4.897747
62.555 4.834328
62.560 4.751121
62.565 4.903217
62.570 4.998347
62.575 5.483628
62.580 5.782426
62.585 6.127813
62.590 6.120905
62.595 5.484478
62.600 5.095669
62.605 4.758605
62.610 4.840409
62.615 4.709209
62.620 4.527375
62.625 4.567553
62.630 4.703483
62.635 4.640987
62.640 4.783985
62.645 4.452812
62.650 4.471189
62.655 4.467914
62.660 4.508862
62.665 4.329357
62.670 4.321315
62.675 4.327563
62.680 4.347023
62.685 4.203082
62.690 4.218022
62.695 4.478274
62.700 4.748177
62.705 5.197044
62.710 5.568637
62.715 5.580726
62.720 5.546071
62.725 5.42913
62.730 5.452815
62.735 5.009455
62.740 4.608562
62.745 4.154979
62.750 4.422738
62.755 4.905405
62.760 5.15996
62.765 5.096016
62.770 5.265273
62.775 5.05436
62.780 5.008178
62.785 4.770102
62.790 4.641364
62.795 4.636034
62.800 4.787842
62.805 4.927372
62.810 4.978383
62.815 4.945069
62.820 4.758585
62.825 4.789633
62.830 4.673936
62.835 4.403142
62.840 4.246669
62.845 4.307898
62.850 4.190706
62.855 3.942149
62.860 3.522169
62.865 3.299564
62.870 3.566118
62.875 3.673355
62.880 3.670775
62.885 3.889698
62.890 4.021091
62.895 4.877774
62.900 5.247201
62.905 5.627162
62.910 5.796789
62.915 6.015164
62.920 6.128888
62.925 5.99411
62.930 5.525751
62.935 5.396809
62.940 4.988969
62.945 4.726085
62.950 4.583225
62.955 4.497371
62.960 4.649791
62.965 4.508995
62.970 4.50847
62.975 4.279009
62.980 4.215868
62.985 4.250382
62.990 4.317828
62.995 4.273405
63.000 4.430226
63.005 4.568518
63.010 4.965292
63.015 5.256873
63.020 5.290087
63.025 4.979804
63.030 4.947662
63.035 4.920702
63.040 4.787427
63.045 4.573881
63.050 4.97367
63.055 5.383015
63.060 5.66677
63.065 5.680133
63.070 5.586912
63.075 5.320509
63.080 5.472892
63.085 5.225454
63.090 5.165056
63.095 4.898037
63.100 5.035757
63.105 5.435828
63.110 5.88981
63.115 5.68662
63.120 5.47518
63.125 5.613068
63.130 5.849637
63.135 5.681072
63.140 5.104677
63.145 4.651779
63.150 4.638623
63.155 4.444791
63.160 4.128216
63.165 4.559487
63.170 5.098112
63.175 5.808105
63.180 6.014663
63.185 5.922248
63.190 6.071393
63.195 6.181364
63.200 5.981396
63.205 5.840759
63.210 5.407007
63.215 5.627764
63.220 5.820277
63.225 5.796762
63.230 5.694639
63.235 5.204706
63.240 4.831513
63.245 4.57418
63.250 4.135005
63.255 3.940466
63.260 3.662046
63.265 3.550782
63.270 3.509183
63.275 3.910739
63.280 4.141669
63.285 4.570315
63.290 5.008193
63.295 5.196603
63.300 5.462265
63.305 5.702532
63.310 5.449419
63.315 5.705178
63.320 5.606986
63.325 5.538904
63.330 5.72
63.335 5.644017
63.340 5.66539
63.345 6.168907
63.350 6.011071
63.355 6.022923
63.360 5.990386
63.365 5.743329
63.370 6.039788
63.375 5.815013
63.380 5.272356
63.385 5.284439
63.390 5.339142
63.395 5.25271
63.400 5.459714
63.405 5.369781
63.410 5.38675
63.415 5.593445
63.420 5.513327
63.425 5.404638
63.430 5.305789
63.435 5.474611
63.440 5.609159
63.445 5.686862
63.450 6.061872
63.455 5.878173
63.460 5.820527
63.465 6.022156
63.470 5.516394
63.475 5.284141
63.480 4.943895
63.485 4.469904
63.490 4.753068
63.495 5.047184
63.500 5.152316
63.505 5.350156
63.510 5.436768
63.515 5.662012
63.520 5.7431
63.525 5.869496
63.530 5.701223
63.535 5.733468
63.540 5.927287
63.545 6.102886
63.550 5.973407
63.555 6.101105
63.560 5.866147
63.565 5.601028
63.570 5.518675
63.575 5.224658
63.580 5.013132
63.585 5.11118
63.590 5.046729
63.595 5.309249
63.600 5.5321
63.605 5.600005
63.610 5.775445
63.615 5.905209
63.620 5.868905
63.625 5.823902
63.630 5.549376
63.635 5.266919
63.640 5.037066
63.645 4.791075
63.650 4.52268
63.655 4.397286
63.660 4.52696
63.665 4.512445
63.670 4.653887
63.675 4.708191
63.680 4.664336
63.685 5.110375
63.690 5.172089
63.695 4.984162
63.700 5.115801
63.705 5.274497
63.710 5.598154
63.715 5.753981
63.720 5.676988
63.725 5.351344
63.730 5.028064
63.735 4.930877
63.740 4.601271
63.745 4.392578
63.750 4.207245
63.755 4.129835
63.760 4.653853
63.765 4.825178
63.770 4.829923
63.775 4.927585
63.780 5.217506
63.785 5.356518
63.790 5.273977
63.795 4.956304
63.800 4.990452
63.805 5.101471
63.810 5.206822
63.815 5.185838
63.820 5.256169
63.825 5.216478
63.830 5.282031
63.835 5.177703
63.840 5.260741
63.845 5.288685
63.850 4.851239
63.855 4.639637
63.860 4.649386
63.865 5.037343
63.870 5.169303
63.875 5.102325
63.880 4.750351
63.885 4.997956
63.890 5.156223
63.895 5.276697
63.900 5.191983
63.905 5.246181
63.910 5.639802
63.915 6.047781
63.920 6.17431
63.925 6.052502
63.930 5.89715
63.935 5.600778
63.940 5.379413
63.945 5.057137
63.950 4.881369
63.955 5.225696
63.960 5.293098
63.965 5.266592
63.970 5.539975
63.975 5.596962
63.980 5.550933
63.985 5.654096
63.990 5.26268
63.995 4.863941
64.000 5.15489
64.005 5.267984
64.010 4.985153
64.015 4.959062
64.020 4.784035
64.025 4.921552
64.030 5.132942
64.035 4.874094
64.040 4.805143
64.045 5.036153
64.050 4.891241
64.055 4.925152
64.060 4.887538
64.065 5.490688
64.070 5.311753
64.075 5.240256
64.080 5.584356
64.085 5.701169
64.090 5.477497
64.095 5.782398
64.100 5.404153
64.105 5.438961
64.110 5.562225
64.115 5.452054
64.120 5.32673
64.125 5.541835
64.130 5.340252
64.135 5.383823
64.140 5.421035
64.145 5.395555
64.150 5.497114
64.155 5.533608
64.160 5.579517
64.165 5.670967
64.170 5.827456
64.175 5.594106
64.180 5.595459
64.185 5.223864
64.190 5.362666
64.195 5.495373
64.200 5.701664
64.205 5.61001
64.210 5.510147
64.215 5.459565
64.220 5.963894
64.225 6.281521
64.230 6.806963
64.235 6.750468
64.240 7.200792
64.245 7.427344
64.250 7.375157
64.255 6.9388
64.260 7.079995
64.265 6.890926
64.270 6.731937
64.275 6.705592
64.280 7.140511
64.285 7.529909
64.290 8.01503
64.295 7.778862
64.300 7.495466
64.305 7.669432
64.310 7.612208
64.315 7.196364
64.320 7.205995
64.325 6.957668
64.330 7.072779
64.335 7.542433
64.340 7.967979
64.345 8.257441
64.350 8.663625
64.355 9.050682
64.360 9.044754
64.365 9.077643
64.370 9.002522
64.375 8.750669
64.380 8.676112
64.385 9.41842
64.390 9.941074
64.395 10.351052
64.400 10.573286
64.405 11.444427
64.410 12.213058
64.415 13.037793
64.420 12.887989
64.425 12.946352
64.430 13.638554
64.435 13.73204
64.440 13.378296
64.445 13.624701
64.450 13.96348
64.455 14.34967
64.460 14.53298
64.465 15.172208
64.470 15.930407
64.475 16.744635
64.480 17.268961
64.485 17.362881
64.490 18.22788
64.495 18.78158
64.500 18.849361
64.505 19.201368
64.510 19.96166
64.515 20.846384
64.520 21.242382
64.525 21.721205
64.530 22.485367
64.535 23.261122
64.540 23.769569
64.545 23.521227
64.550 23.88891
64.555 24.970743
64.560 25.067072
64.565 24.6576
64.570 24.764442
64.575 25.03936
64.580 25.226654
64.585 25.650036
64.590 25.139376
64.595 24.293514
64.600 24.213469
64.605 23.910688
64.610 24.087978
64.615 24.643869
64.620 24.265118
64.625 23.802547
64.630 23.872107
64.635 23.940605
64.640 24.071156
64.645 23.446321
64.650 23.23518
64.655 23.345213
64.660 24.177982
64.665 24.487858
64.670 24.232033
64.675 23.129776
64.680 22.815298
64.685 22.16675
64.690 21.527021
64.695 20.361649
64.700 19.651091
64.705 18.732021
64.710 18.26722
64.715 17.248737
64.720 16.433077
64.725 16.042934
64.730 16.615335
64.735 17.061378
64.740 17.653706
64.745 17.750807
64.750 17.79011
64.755 17.96134
64.760 18.644726
64.765 18.541908
64.770 17.903521
64.775 17.187424
64.780 17.088766
64.785 17.420128
64.790 16.885887
64.795 15.446125
64.800 14.593251
64.805 14.310522
64.810 14.13623
64.815 13.552716
64.820 13.138351
64.825 13.296214
64.830 12.942034
64.835 12.973348
64.840 12.927835
64.845 12.638452
64.850 12.24719
64.855 12.06995
64.860 11.816499
64.865 11.357609
64.870 11.304598
64.875 11.751615
64.880 11.865236
64.885 11.928116
64.890 11.651025
64.895 11.257534
64.900 11.497918
64.905 10.759923
64.910 10.232738
64.915 10.099197
64.920 10.089087
64.925 9.64693
64.930 9.481632
64.935 9.616147
64.940 10.172974
64.945 10.393971
64.950 10.309222
64.955 10.122735
64.960 10.733417
64.965 11.349786
64.970 10.983323
64.975 10.28571
64.980 9.790298
64.985 9.551517
64.990 9.332312
64.995 8.614617
65.000 8.289411
65.005 8.133057
65.010 8.022974
65.015 8.366813
65.020 8.47885
65.025 8.750751
65.030 8.561591
65.035 8.302086
65.040 8.268931
65.045 8.192975
65.050 7.813036
65.055 7.930032
65.060 7.665389
65.065 7.728271
65.070 7.725307
65.075 7.614366
65.080 7.617663
65.085 7.854783
65.090 7.896491
65.095 8.14481
65.100 8.10121
65.105 7.640064
65.110 7.351849
65.115 7.790966
65.120 7.707763
65.125 7.70251
65.130 7.725043
65.135 7.864112
65.140 7.405532
65.145 6.941395
65.150 6.653225
65.155 6.278003
65.160 6.054035
65.165 6.120397
65.170 6.120086
65.175 6.499995
65.180 6.767392
65.185 6.776309
65.190 6.728204
65.195 6.804247
65.200 6.485554
65.205 6.350347
65.210 6.445597
65.215 6.433849
65.220 6.580059
65.225 6.521163
65.230 6.383536
65.235 6.290016
65.240 6.348857
65.245 6.575468
65.250 6.700352
65.255 6.453518
65.260 6.496675
65.265 6.16766
65.270 5.945038
65.275 5.694051
65.280 5.912786
65.285 5.619959
65.290 5.358532
65.295 5.358957
65.300 5.476817
65.305 5.54357
65.310 5.546675
65.315 5.062479
65.320 5.692459
65.325 5.978165
65.330 6.08037
65.335 6.102902
65.340 5.942701
65.345 6.09078
65.350 6.698721
65.355 6.468025
65.360 7.051467
65.365 7.01376
65.370 7.00585
65.375 7.493662
65.380 7.497876
65.385 7.412921
65.390 7.569129
65.395 7.148647
65.400 7.101296
65.405 7.369557
65.410 7.571058
65.415 7.545579
65.420 7.270021
65.425 6.675616
65.430 6.369388
65.435 6.59268
65.440 6.41338
65.445 6.244194
65.450 5.91916
65.455 5.005377
65.460 5.275141
65.465 5.398385
65.470 5.365356
65.475 5.66885
65.480 5.698184
65.485 5.85357
65.490 5.926984
65.495 5.54762
65.500 5.442885
65.505 5.239322
65.510 4.810693
65.515 4.57109
65.520 4.201511
65.525 4.242906
65.530 4.593871
65.535 4.310462
65.540 4.067894
65.545 3.809204
65.550 4.059108
65.555 4.549023
65.560 4.943389
65.565 4.795853
65.570 5.068094
65.575 5.511653
65.580 5.662262
65.585 5.598557
65.590 5.47621
65.595 5.321509
65.600 5.793048
65.605 5.773235
65.610 5.590111
65.615 5.712467
65.620 5.647766
65.625 5.554639
65.630 5.640358
65.635 5.548531
65.640 5.769387
65.645 5.535045
65.650 5.362922
65.655 5.774579
65.660 5.917067
65.665 5.892973
65.670 5.572777
65.675 5.349401
65.680 5.609592
65.685 5.609486
65.690 5.058523
65.695 5.132644
65.700 4.987225
65.705 5.138797
65.710 5.338043
65.715 5.213872
65.720 5.09461
65.725 5.464073
65.730 5.262356
65.735 5.040688
65.740 5.106396
65.745 4.971315
65.750 5.049863
65.755 5.182216
65.760 4.619388
65.765 4.463832
65.770 4.469023
65.775 4.114902
65.780 4.193074
65.785 4.282959
65.790 4.625721
65.795 5.212408
65.800 5.470221
65.805 5.634192
65.810 5.945212
65.815 6.094641
65.820 5.848418
65.825 5.378148
65.830 4.938324
65.835 4.745218
65.840 4.99201
65.845 4.86707
65.850 4.760655
65.855 4.721948
65.860 4.836754
65.865 5.288595
65.870 5.480951
65.875 5.365113
65.880 5.44622
65.885 5.221313
65.890 5.326819
65.895 5.037889
65.900 5.003368
65.905 5.259649
65.910 5.062329
65.915 5.018572
65.920 5.026116
65.925 4.725658
65.930 4.683626
65.935 4.671216
65.940 4.382685
65.945 4.596754
65.950 4.687312
65.955 4.718823
65.960 4.739739
65.965 4.870142
65.970 4.560074
65.975 4.242041
65.980 3.960536
65.985 3.917484
65.990 4.201689
65.995 4.582447
66.000 4.713077
66.005 4.812419
66.010 4.933333
66.015 4.874146
66.020 4.897018
66.025 5.017344
66.030 4.92667
66.035 4.644735
66.040 4.624968
66.045 5.075216
66.050 5.220596
66.055 5.111955
66.060 4.584102
66.065 4.778584
66.070 4.930264
66.075 5.003669
66.080 4.822801
66.085 4.885835
66.090 5.034983
66.095 5.282256
66.100 4.945499
66.105 4.771105
66.110 4.90652
66.115 5.148448
66.120 5.34597
66.125 5.325115
66.130 4.926981
66.135 4.767624
66.140 4.9677
66.145 4.911692
66.150 4.656529
66.155 4.116056
66.160 3.963153
66.165 4.245704
66.170 4.386046
66.175 4.139296
66.180 4.036298
66.185 4.455247
66.190 4.786678
66.195 4.79325
66.200 4.855281
66.205 5.015914
66.210 5.050758
66.215 4.719606
66.220 4.459647
66.225 4.657886
66.230 4.6343
66.235 4.794015
66.240 4.849991
66.245 5.213059
66.250 5.379378
66.255 5.212763
66.260 5.691014
66.265 5.827171
66.270 5.886785
66.275 5.930289
66.280 5.871655
66.285 6.138549
66.290 5.98675
66.295 5.439952
66.300 5.233646
66.305 4.964816
66.310 4.859662
66.315 5.155459
66.320 5.019704
66.325 5.286013
66.330 5.383609
66.335 5.48896
66.340 5.528976
66.345 5.581757
66.350 5.299461
66.355 5.13208
66.360 5.115651
66.365 5.388941
66.370 5.404185
66.375 5.524307
66.380 5.350744
66.385 5.180896
66.390 5.186867
66.395 4.901156
66.400 4.337328
66.405 4.161344
66.410 4.194831
66.415 4.307792
66.420 4.509194
66.425 4.47003
66.430 4.927135
66.435 5.81093
66.440 5.720327
66.445 5.658822
66.450 5.781407
66.455 5.782562
66.460 6.18692
66.465 5.682248
66.470 5.170342
66.475 5.318877
66.480 5.472029
66.485 5.243991
66.490 4.982179
66.495 4.608146
66.500 4.626054
66.505 4.310084
66.510 4.131565
66.515 4.256049
66.520 4.630555
66.525 4.552413
66.530 4.570686
66.535 4.43852
66.540 4.678973
66.545 5.063632
66.550 4.770547
66.555 4.584671
66.560 4.747516
66.565 4.833415
66.570 5.247857
66.575 5.323183
66.580 5.033803
66.585 5.314668
66.590 5.512821
66.595 5.632339
66.600 5.379705
66.605 5.30236
66.610 5.209589
66.615 5.271508
66.620 4.948507
66.625 4.882641
66.630 4.638822
66.635 4.551104
66.640 4.500031
66.645 4.740803
66.650 4.599742
66.655 4.759299
66.660 4.892694
66.665 4.890821
66.670 5.106345
66.675 4.74978
66.680 4.830468
66.685 5.072138
66.690 5.228951
66.695 5.718618
66.700 5.814662
66.705 5.687117
66.710 5.732132
66.715 5.43016
66.720 5.27635
66.725 4.858818
66.730 4.323439
66.735 4.276071
66.740 4.248611
66.745 4.495487
66.750 4.573659
66.755 4.549145
66.760 4.563712
66.765 4.650636
66.770 5.059186
66.775 5.129643
66.780 4.786968
66.785 4.99186
66.790 5.326367
66.795 5.283226
66.800 5.372005
66.805 5.437155
66.810 5.776103
66.815 6.088413
66.820 5.790197
66.825 5.661808
66.830 5.456951
66.835 5.267002
66.840 5.097762
66.845 5.646957
66.850 5.689899
66.855 5.749732
66.860 5.654946
66.865 5.787777
66.870 5.675582
66.875 5.327538
66.880 4.491609
66.885 4.385183
66.890 4.118829
66.895 3.936944
66.900 3.959125
66.905 4.048296
66.910 3.934471
66.915 3.940156
66.920 4.072563
66.925 4.307152
66.930 4.573023
66.935 4.600943
66.940 4.773302
66.945 5.073128
66.950 5.278641
66.955 5.165579
66.960 5.31097
66.965 5.365633
66.970 5.229184
66.975 5.177455
66.980 4.988668
66.985 4.603696
66.990 4.366286
66.995 4.127655
67.000 3.925712
67.005 3.792523
67.010 3.565612
67.015 3.793845
67.020 3.821028
67.025 3.912353
67.030 3.735724
67.035 3.710398
67.040 3.732153
67.045 3.63572
67.050 3.789477
67.055 4.057019
67.060 4.409914
67.065 4.831699
67.070 5.054769
67.075 5.412783
67.080 5.488434
67.085 5.410974
67.090 5.35224
67.095 5.248328
67.100 5.215181
67.105 5.216885
67.110 5.195284
67.115 5.216091
67.120 5.536025
67.125 5.739552
67.130 5.585135
67.135 5.334822
67.140 5.40624
67.145 5.295285
67.150 5.547972
67.155 5.418518
67.160 5.869921
67.165 6.354541
67.170 6.652042
67.175 6.549295
67.180 6.459272
67.185 6.105084
67.190 6.008289
67.195 5.639739
67.200 5.129508
67.205 4.69918
67.210 4.85828
67.215 4.887206
67.220 4.801912
67.225 4.258448
67.230 3.962386
67.235 4.0965
67.240 4.019774
67.245 3.849951
67.250 3.952329
67.255 3.886275
67.260 3.891794
67.265 4.019511
67.270 4.045974
67.275 4.165452
67.280 4.234977
67.285 4.167941
67.290 4.183319
67.295 4.223248
67.300 4.295352
67.305 4.272998
67.310 4.571977
67.315 4.278907
67.320 4.362561
67.325 4.571482
67.330 4.543924
67.335 4.504813
67.340 4.560982
67.345 4.6357
67.350 4.978525
67.355 4.955033
67.360 5.247355
67.365 5.737051
67.370 5.671039
67.375 5.63902
67.380 5.275785
67.385 4.950376
67.390 4.812674
67.395 4.514282
67.400 4.546944
67.405 4.725178
67.410 5.084947
67.415 5.223852
67.420 5.684357
67.425 6.163894
67.430 6.517354
67.435 6.105285
67.440 6.005613
67.445 5.778267
67.450 5.989994
67.455 5.836134
67.460 5.493356
67.465 5.304456
67.470 5.64427
67.475 5.709427
67.480 5.636388
67.485 5.313154
67.490 5.319168
67.495 5.210496
67.500 4.940794
67.505 4.587869
67.510 4.055404
67.515 4.034014
67.520 4.7327
67.525 5.042777
67.530 5.027439
67.535 5.006822
67.540 5.381167
67.545 5.589514
67.550 5.41821
67.555 4.919741
67.560 4.774023
67.565 4.701251
67.570 4.656412
67.575 4.456616
67.580 4.741403
67.585 4.773783
67.590 4.667544
67.595 4.998724
67.600 5.31082
67.605 5.202584
67.610 4.864016
67.615 4.54303
67.620 4.420563
67.625 4.224467
67.630 4.038013
67.635 4.444302
67.640 4.903028
67.645 5.287473
67.650 5.824729
67.655 6.241388
67.660 6.503171
67.665 6.613511
67.670 6.465138
67.675 6.993418
67.680 7.275266
67.685 7.291349
67.690 7.374657
67.695 7.219654
67.700 7.022644
67.705 7.07398
67.710 6.874084
67.715 6.809471
67.720 6.605122
67.725 6.731882
67.730 6.83903
67.735 6.971775
67.740 7.570554
67.745 7.777358
67.750 8.000695
67.755 8.130852
67.760 8.404497
67.765 8.608015
67.770 8.694599
67.775 8.663817
67.780 9.239928
67.785 10.027447
67.790 10.665193
67.795 10.67046
67.800 11.108005
67.805 10.940614
67.810 10.832464
67.815 10.659539
67.820 10.528635
67.825 10.727766
67.830 10.396459
67.835 10.490452
67.840 10.67463
67.845 11.042397
67.850 11.315516
67.855 11.140275
67.860 12.038514
67.865 12.860747
67.870 13.100818
67.875 13.715761
67.880 14.793799
67.885 15.274193
67.890 15.263758
67.895 14.756774
67.900 14.58493
67.905 14.930322
67.910 14.765387
67.915 14.013063
67.920 13.800808
67.925 13.957981
67.930 14.089592
67.935 13.933614
67.940 13.62961
67.945 12.871055
67.950 12.282788
67.955 12.170923
67.960 11.583864
67.965 11.640682
67.970 12.109235
67.975 11.979556
67.980 12.21694
67.985 12.70074
67.990 12.952005
67.995 13.146474
68.000 13.300439
68.005 12.749642
68.010 12.879315
68.015 12.785365
68.020 12.727739
68.025 12.130749
68.030 12.25569
68.035 11.945706
68.040 12.114343
68.045 12.423181
68.050 12.719431
68.055 12.617465
68.060 12.721357
68.065 12.593987
68.070 12.15777
68.075 11.936216
68.080 11.679994
68.085 11.198757
68.090 10.984384
68.095 10.747228
68.100 11.035831
68.105 11.823657
68.110 11.962015
68.115 11.880332
68.120 12.659533
68.125 12.950653
68.130 13.483102
68.135 13.747944
68.140 13.592112
68.145 13.78882
68.150 13.382609
68.155 12.832329
68.160 12.769562
68.165 12.688525
68.170 11.736051
68.175 11.478683
68.180 11.626957
68.185 11.959599
68.190 11.671782
68.195 11.057582
68.200 10.500953
68.205 10.356007
68.210 9.96516
68.215 9.621265
68.220 9.374773
68.225 8.997128
68.230 8.72893
68.235 8.002635
68.240 7.499334
68.245 7.059536
68.250 6.687878
68.255 6.585808
68.260 6.786887
68.265 6.942485
68.270 7.130214
68.275 7.468212
68.280 7.960102
68.285 8.091516
68.290 7.870917
68.295 7.422347
68.300 7.176419
68.305 7.473133
68.310 7.205673
68.315 7.02651
68.320 6.613513
68.325 6.407421
68.330 6.710363
68.335 6.529442
68.340 6.393157
68.345 6.274243
68.350 5.944523
68.355 6.101772
68.360 6.559385
68.365 6.564001
68.370 7.150678
68.375 7.306575
68.380 7.153081
68.385 6.809584
68.390 6.51732
68.395 5.627831
68.400 5.70028
68.405 4.965478
68.410 4.380323
68.415 4.667715
68.420 5.179664
68.425 5.859455
68.430 6.390249
68.435 5.789335
68.440 5.809981
68.445 6.283567
68.450 6.211233
68.455 6.117914
68.460 5.859104
68.465 5.964658
68.470 6.165967
68.475 5.992034
68.480 6.24382
68.485 6.072025
68.490 5.714996
68.495 5.339514
68.500 5.312005
68.505 5.655755
68.510 5.399931
68.515 5.008304
68.520 4.99173
68.525 4.946354
68.530 5.337965
68.535 5.440145
68.540 5.428685
68.545 5.848997
68.550 6.060999
68.555 5.988914
68.560 5.87487
68.565 5.787381
68.570 5.34967
68.575 5.124816
68.580 4.821054
68.585 4.49311
68.590 4.499671
68.595 4.576796
68.600 4.483538
68.605 5.125635
68.610 5.401337
68.615 5.216564
68.620 5.455467
68.625 5.369342
68.630 5.126512
68.635 4.908052
68.640 4.939961
68.645 4.695086
68.650 4.785951
68.655 4.956875
68.660 5.232398
68.665 5.585692
68.670 6.006756
68.675 5.619593
68.680 5.733854
68.685 6.163513
68.690 6.247423
68.695 6.510128
68.700 6.354996
68.705 5.722361
68.710 5.277753
68.715 5.356127
68.720 4.868351
68.725 4.381037
68.730 4.240409
68.735 4.647756
68.740 4.810591
68.745 5.249748
68.750 5.357629
68.755 5.402592
68.760 5.585493
68.765 5.374799
68.770 5.117109
68.775 5.201931
68.780 5.319432
68.785 5.185738
68.790 5.333736
68.795 5.386432
68.800 5.343206
68.805 5.01369
68.810 4.719058
68.815 4.379821
68.820 4.893074
68.825 4.855053
68.830 4.78941
68.835 5.045564
68.840 4.967839
68.845 5.128893
68.850 5.32954
68.855 5.315269
68.860 5.535816
68.865 5.786424
68.870 5.978734
68.875 6.645797
68.880 6.758811
68.885 6.363095
68.890 6.125998
68.895 6.025537
68.900 5.745783
68.905 5.598576
68.910 5.689394
68.915 5.733742
68.920 6.087727
68.925 5.955897
68.930 5.740303
68.935 5.720696
68.940 5.431782
68.945 4.992363
68.950 5.017864
68.955 4.609387
68.960 4.80244
68.965 4.642012
68.970 4.59882
68.975 4.436114
68.980 4.323664
68.985 4.641504
68.990 4.880962
68.995 4.475153
69.000 4.415567
69.005 4.558254
69.010 4.725182
69.015 4.947652
69.020 4.608574
69.025 4.67277
69.030 4.707443
69.035 5.047466
69.040 5.125293
69.045 5.024463
69.050 5.103884
69.055 4.974885
69.060 4.63519
69.065 5.034969
69.070 4.880448
69.075 4.816165
69.080 4.803818
69.085 5.227664
69.090 6.030156
69.095 6.433872
69.100 6.269403
69.105 6.202294
69.110 6.379896
69.115 6.266194
69.120 5.825993
69.125 5.310475
69.130 5.359302
69.135 5.460717
69.140 6.003787
69.145 5.940346
69.150 6.115694
69.155 5.731979
69.160 5.256719
69.165 5.109308
69.170 4.934301
69.175 4.4271
69.180 4.539433
69.185 4.457101
69.190 4.629995
69.195 5.086414
69.200 5.246089
69.205 5.393659
69.210 5.463474
69.215 5.464807
69.220 5.869195
69.225 5.794264
69.230 5.952732
69.235 6.015718
69.240 5.952256
69.245 5.929927
69.250 6.10235
69.255 6.152721
69.260 6.060623
69.265 5.410663
69.270 5.380589
69.275 5.476692
69.280 5.530581
69.285 5.020316
69.290 4.944186
69.295 5.255992
69.300 5.445561
69.305 5.385868
69.310 5.518347
69.315 5.667246
69.320 5.602835
69.325 5.062403
69.330 4.813764
69.335 4.849729
69.340 4.981171
69.345 4.82283
69.350 4.850245
69.355 5.260819
69.360 5.376499
69.365 5.257982
69.370 5.160718
69.375 4.928124
69.380 4.645127
69.385 4.337814
69.390 4.148145
69.395 4.407448
69.400 4.859833
69.405 4.888772
69.410 4.91208
69.415 4.752275
69.420 4.670484
69.425 4.662565
69.430 4.597248
69.435 4.508224
69.440 4.149073
69.445 4.043966
69.450 4.241531
69.455 4.248534
69.460 4.296605
69.465 4.080001
69.470 3.69801
69.475 3.883364
69.480 4.062568
69.485 3.874689
69.490 3.598763
69.495 3.313116
69.500 3.389312
69.505 3.439238
69.510 3.604422
69.515 3.648209
69.520 3.948098
69.525 4.154052
69.530 4.748571
69.535 4.815948
69.540 5.185987
69.545 5.213235
69.550 5.132252
69.555 5.189888
69.560 4.915993
69.565 4.715972
69.570 4.65748
69.575 4.553788
69.580 4.553907
69.585 4.782547
69.590 4.889365
69.595 4.654903
69.600 4.454699
69.605 4.843603
69.610 4.594234
69.615 4.388321
69.620 3.899012
69.625 4.352318
69.630 4.925868
69.635 5.05906
69.640 4.927486
69.645 4.96227
69.650 5.030294
69.655 4.979877
69.660 4.674463
69.665 4.939586
69.670 4.925601
69.675 4.757752
69.680 5.016312
69.685 5.504547
69.690 6.103597
69.695 5.737118
69.700 5.319647
69.705 4.997922
69.710 4.824215
69.715 4.953766
69.720 5.039881
69.725 5.060869
69.730 5.124177
69.735 5.313708
69.740 5.728656
69.745 5.933753
69.750 5.754597
69.755 5.330685
69.760 5.07352
69.765 4.921306
69.770 4.785043
69.775 5.15239
69.780 5.684579
69.785 5.418073
69.790 5.667708
69.795 5.789044
69.800 5.836028
69.805 5.534849
69.810 5.185777
69.815 5.13399
69.820 5.042821
69.825 4.817729
69.830 4.71268
69.835 4.819476
69.840 4.768914
69.845 4.552308
69.850 4.064985
69.855 3.843574
69.860 3.801448
69.865 4.048177
69.870 4.161222
69.875 4.225238
69.880 4.288334
69.885 4.632475
69.890 4.812416
69.895 4.78587
69.900 4.63821
69.905 4.672544
69.910 4.818504
69.915 4.62005
69.920 4.461668
69.925 4.923414
69.930 5.13063
69.935 5.152097
69.940 5.094902
69.945 5.198132
69.950 5.339125
69.955 5.281896
69.960 4.727571
69.965 4.795104
69.970 4.830088
69.975 4.750223
69.980 4.409024
69.985 4.335472
69.990 4.427495
69.995 4.482295
70.000 4.052889
70.005 4.16558
70.010 4.11849
70.015 4.62509
70.020 4.947478
70.025 4.755117
70.030 4.670081
70.035 4.836522
70.040 4.684421
70.045 4.951787
70.050 4.725752
70.055 4.541984
70.060 4.869378
70.065 4.974876
70.070 4.966482
70.075 4.911643
70.080 4.61517
70.085 4.707186
70.090 4.769876
70.095 4.819629
70.100 4.643162
70.105 4.475979
70.110 4.747118
70.115 4.974568
70.120 4.990695
70.125 5.275122
70.130 4.947218
70.135 5.014286
70.140 4.838995
70.145 4.720259
70.150 4.715328
70.155 4.602803
70.160 4.28187
70.165 4.34123
70.170 4.334615
70.175 4.268839
70.180 4.238463
70.185 4.313344
70.190 4.317435
70.195 4.218907
70.200 4.052219
70.205 4.00841
70.210 4.446784
70.215 4.717181
70.220 5.034445
70.225 4.962167
70.230 5.322745
70.235 5.759302
70.240 5.934997
70.245 5.567199
70.250 5.201941
70.255 4.904526
70.260 4.792483
70.265 4.563936
70.270 4.197424
70.275 3.91502
70.280 3.753254
70.285 3.374238
70.290 3.496487
70.295 3.800109
70.300 3.68082
70.305 3.864365
70.310 3.949986
70.315 4.028516
70.320 4.141612
70.325 3.952338
70.330 3.481897
70.335 3.890606
70.340 3.989019
70.345 3.904442
70.350 3.697172
70.355 3.686777
70.360 3.661304
70.365 3.855281
70.370 3.638721
70.375 3.962378
70.380 4.475031
70.385 4.677001
70.390 5.003539
70.395 5.015171
70.400 5.121075
70.405 5.293231
70.410 4.933345
70.415 4.8579
70.420 5.440183
70.425 5.376972
70.430 5.481737
70.435 5.103181
70.440 4.823624
70.445 4.87042
70.450 5.110469
70.455 4.710804
70.460 4.6174
70.465 4.340889
70.470 4.379303
70.475 4.454685
70.480 4.419988
70.485 4.252943
70.490 4.313437
70.495 4.710031
70.500 5.067901
70.505 5.449259
70.510 5.442903
70.515 5.191745
70.520 4.960189
70.525 4.905561
70.530 4.551802
70.535 4.575371
70.540 4.431859
70.545 4.343931
70.550 3.961852
70.555 4.191805
70.560 4.123025
70.565 4.24979
70.570 4.381066
70.575 4.184993
70.580 4.628273
70.585 4.995724
70.590 4.508615
70.595 4.522302
70.600 4.50955
70.605 4.011729
70.610 3.984239
70.615 3.706172
70.620 3.562021
70.625 3.719373
70.630 3.58248
70.635 3.495481
70.640 3.512362
70.645 3.330316
70.650 3.645762
70.655 3.639966
70.660 3.605224
70.665 3.873454
70.670 4.094983
70.675 4.335717
70.680 4.181854
70.685 4.176326
70.690 4.394857
70.695 4.337642
70.700 4.224426
70.705 4.075062
70.710 4.022337
70.715 4.37417
70.720 4.297436
70.725 4.203568
70.730 4.414794
70.735 4.321872
70.740 4.103535
70.745 4.186172
70.750 4.139891
70.755 3.92648
70.760 3.842541
70.765 3.715283
70.770 3.79841
70.775 3.853827
70.780 3.750871
70.785 3.868961
70.790 4.162706
70.795 4.421842
70.800 4.198759
70.805 4.340997
70.810 4.280194
70.815 4.141165
70.820 4.060802
70.825 3.897217
70.830 4.118083
70.835 4.433219
70.840 4.591012
70.845 4.634435
70.850 4.552318
70.855 4.388216
70.860 4.136053
70.865 3.877992
70.870 3.463639
70.875 3.283526
70.880 3.491649
70.885 3.363137
70.890 3.339903
70.895 3.343351
70.900 3.304652
70.905 3.395296
70.910 3.286576
70.915 3.452251
70.920 3.965621
70.925 4.384118
70.930 4.974686
70.935 5.167893
70.940 5.212507
70.945 5.473216
70.950 5.148273
70.955 4.775449
70.960 4.218249
70.965 3.624682
70.970 3.511649
70.975 3.1105
70.980 3.190065
70.985 3.480446
70.990 3.75411
70.995 3.825752
71.000 3.934547
71.005 4.297789
71.010 4.712761
71.015 4.735243
71.020 4.458208
71.025 4.094731
71.030 4.040795
71.035 4.217766
71.040 4.121754
71.045 4.076715
71.050 4.030544
71.055 4.344854
71.060 4.501287
71.065 4.808938
71.070 4.591939
71.075 4.410901
71.080 4.273541
71.085 4.473762
71.090 4.384828
71.095 4.230077
71.100 3.970473
71.105 4.211019
71.110 4.424076
71.115 4.141057
71.120 3.661273
71.125 3.893747
71.130 3.932622
71.135 3.871974
71.140 3.999617
71.145 4.072128
71.150 4.405529
71.155 4.45175
71.160 4.214337
71.165 4.332195
71.170 4.312464
71.175 3.843533
71.180 3.786709
71.185 3.930151
71.190 4.21545
71.195 4.274131
71.200 4.509454
71.205 4.665799
71.210 4.694546
71.215 4.555601
71.220 4.333038
71.225 4.23726
71.230 4.396033
71.235 4.011769
71.240 3.700706
71.245 3.716502
71.250 3.516918
71.255 3.720254
71.260 3.788831
71.265 3.85866
71.270 4.014788
71.275 4.23557
71.280 4.398516
71.285 4.421976
71.290 4.315094
71.295 4.021723
71.300 4.226318
71.305 4.176549
71.310 4.085147
71.315 4.189521
71.320 4.155206
71.325 4.048633
71.330 3.864101
71.335 3.461712
71.340 3.219805
71.345 3.240308
71.350 3.389358
71.355 3.361876
71.360 3.469174
71.365 3.647935
71.370 3.775122
71.375 3.778412
71.380 3.673948
71.385 3.632243
71.390 3.665462
71.395 3.438077
71.400 3.42037
71.405 3.522823
71.410 3.68744
71.415 3.497313
71.420 3.20728
71.425 3.299791
71.430 3.280483
71.435 3.044044
71.440 2.982921
71.445 2.968673
71.450 3.080297
71.455 3.522289
71.460 3.592178
71.465 4.178273
71.470 4.853041
71.475 4.827452
71.480 4.866997
71.485 4.975689
71.490 4.701651
71.495 4.591913
71.500 4.128053
71.505 3.857686
71.510 3.849874
71.515 3.784275
71.520 3.700021
71.525 3.686843
71.530 3.708159
71.535 3.982429
71.540 4.155831
71.545 4.182777
71.550 4.180152
71.555 4.382221
71.560 4.54537
71.565 4.649593
71.570 4.868828
71.575 4.766043
71.580 4.884521
71.585 5.071069
71.590 4.891026
71.595 4.886837
71.600 4.903549
71.605 4.725234
71.610 4.925991
71.615 4.491832
71.620 4.38607
71.625 4.375988
71.630 4.261145
71.635 3.763274
71.640 3.61645
71.645 3.473241
71.650 3.53881
71.655 3.313951
71.660 3.083216
71.665 3.003953
71.670 3.310394
71.675 3.504637
71.680 3.614981
71.685 3.504737
71.690 3.434924
71.695 3.754398
71.700 4.06605
71.705 3.83975
71.710 3.457215
71.715 3.450825
71.720 3.72721
71.725 3.781386
71.730 3.684126
71.735 3.659057
71.740 3.628998
71.745 3.661307
71.750 3.572204
71.755 3.666549
71.760 3.634037
71.765 3.552212
71.770 3.480036
71.775 3.55975
71.780 3.665486
71.785 3.427192
71.790 3.256092
71.795 3.457386
71.800 3.288575
71.805 3.275024
71.810 3.146537
71.815 2.862417
71.820 2.928045
71.825 3.367143
71.830 3.421849
71.835 3.58144
71.840 3.310891
71.845 3.417756
71.850 3.718402
71.855 3.716212
71.860 3.627627
71.865 3.478623
71.870 3.407395
71.875 4.05879
71.880 4.04214
71.885 3.983881
71.890 3.90721
71.895 3.647766
71.900 3.74623
71.905 3.769754
71.910 3.425321
71.915 3.636531
71.920 3.906139
71.925 4.047579
71.930 3.902836
71.935 3.827578
71.940 3.575883
71.945 3.245752
71.950 3.00398
71.955 2.815934
71.960 2.726291
71.965 2.671355
71.970 2.838819
71.975 3.286942
71.980 3.712527
71.985 3.857255
71.990 3.982907
71.995 4.144641
72.000 4.443972
72.005 4.52234
72.010 4.422276
72.015 4.498363
72.020 4.31353
72.025 4.339267
72.030 4.329216
72.035 4.299334
72.040 4.430406
72.045 4.328907
72.050 4.386791
72.055 4.693624
72.060 4.869866
72.065 4.758847
72.070 4.661807
72.075 4.389034
72.080 4.0967
72.085 4.096873
72.090 3.840199
72.095 3.723831
72.100 3.787447
72.105 3.672459
72.110 3.91138
72.115 4.093586
72.120 3.874772
72.125 3.68995
72.130 3.698509
72.135 3.491361
72.140 3.757001
72.145 3.629928
72.150 3.301075
72.155 3.362806
72.160 3.40621
72.165 3.62111
72.170 3.873043
72.175 3.70297
72.180 3.729792
72.185 3.883483
72.190 4.262742
72.195 4.225049
72.200 3.959462
72.205 3.862402
72.210 3.971697
72.215 4.276412
72.220 4.262687
72.225 4.253472
72.230 4.487776
72.235 4.684206
72.240 4.784662
72.245 5.069146
72.250 4.783813
72.255 4.578263
72.260 4.192547
72.265 4.19527
72.270 4.086092
72.275 3.872321
72.280 3.406815
72.285 3.240133
72.290 3.100141
72.295 3.052016
72.300 2.785248
72.305 2.777894
72.310 2.836931
72.315 3.251308
72.320 3.641364
72.325 3.772371
72.330 3.787437
72.335 3.996344
72.340 4.43414
72.345 4.726978
72.350 4.691384
72.355 4.845016
72.360 5.056911
72.365 5.158633
72.370 4.936224
72.375 4.534088
72.380 4.160867
72.385 3.922387
72.390 3.503612
72.395 3.406097
72.400 2.98312
72.405 3.081629
72.410 3.101454
72.415 3.07728
72.420 3.211923
72.425 3.491324
72.430 3.454047
72.435 3.428041
72.440 3.183446
72.445 3.453642
72.450 3.704575
72.455 3.868863
72.460 3.636261
72.465 4.007913
72.470 4.20272
72.475 4.347796
72.480 4.173084
72.485 3.935503
72.490 3.810636
72.495 3.6923
72.500 3.379517
72.505 3.423902
72.510 3.175058
72.515 3.153322
72.520 3.14514
72.525 3.244726
72.530 3.444661
72.535 3.485455
72.540 3.318223
72.545 3.202624
72.550 3.269946
72.555 3.212217
72.560 3.10358
72.565 2.960688
72.570 2.827984
72.575 2.97119
72.580 3.23247
72.585 3.361986
72.590 3.388465
72.595 3.519058
72.600 3.642914
72.605 3.718705
72.610 3.519615
72.615 3.487602
72.620 3.543522
72.625 3.853163
72.630 3.969422
72.635 4.22313
72.640 4.241614
72.645 4.255715
72.650 4.051538
72.655 3.896467
72.660 3.445019
72.665 3.433235
72.670 3.448603
72.675 3.40509
72.680 3.763315
72.685 4.174346
72.690 4.170492
72.695 4.14543
72.700 4.056475
72.705 4.400922
72.710 4.582206
72.715 4.868312
72.720 4.941526
72.725 5.044072
72.730 4.997761
72.735 4.723951
72.740 4.5123
72.745 4.296736
72.750 3.553116
72.755 3.48069
72.760 3.454021
72.765 3.800089
72.770 3.847512
72.775 3.526844
72.780 3.624387
72.785 3.630963
72.790 3.622134
72.795 3.308265
72.800 3.008403
72.805 3.247057
72.810 3.341599
72.815 3.337631
72.820 3.563586
72.825 3.900424
72.830 4.109552
72.835 4.033806
72.840 4.208691
72.845 4.277557
72.850 4.162297
72.855 3.986474
72.860 3.789744
72.865 3.930328
72.870 4.108295
72.875 3.965507
72.880 4.838687
72.885 5.14415
72.890 4.843694
72.895 5.025039
72.900 4.820146
72.905 4.765246
72.910 4.245265
72.915 3.468621
72.920 3.548895
72.925 3.700279
72.930 3.76132
72.935 3.382258
72.940 3.303448
72.945 3.690452
72.950 3.536259
72.955 3.519588
72.960 3.329805
72.965 2.918797
72.970 2.852617
72.975 2.698686
72.980 2.711379
72.985 3.049297
72.990 3.256663
72.995 3.407417
73.000 3.660358
73.005 3.823384
73.010 3.584278
73.015 3.499211
73.020 3.290173
73.025 3.127795
73.030 3.086269
73.035 3.39355
73.040 3.636282
73.045 3.703441
73.050 3.468278
73.055 3.072796
73.060 3.00905
73.065 3.233128
73.070 3.259444
73.075 3.112399
73.080 3.150783
73.085 3.277578
73.090 3.47984
73.095 3.806184
73.100 3.674429
73.105 3.803239
73.110 3.889827
73.115 3.731204
73.120 3.66139
73.125 3.555233
73.130 3.258924
73.135 2.997541
73.140 2.836091
73.145 2.804173
73.150 2.953801
73.155 2.930128
73.160 2.873392
73.165 2.919043
73.170 3.027378
73.175 3.043348
73.180 3.103033
73.185 3.087586
73.190 3.144889
73.195 3.199441
73.200 3.154851
73.205 3.245931
73.210 3.457163
73.215 3.480457
73.220 3.811574
73.225 3.801339
73.230 3.893497
73.235 4.049811
73.240 3.871202
73.245 4.010827
73.250 4.097523
73.255 3.960643
73.260 3.943992
73.265 3.839667
73.270 3.747991
73.275 3.522561
73.280 3.241367
73.285 3.191735
73.290 3.160508
73.295 3.235384
73.300 3.28643
73.305 3.211025
73.310 3.449955
73.315 3.509424
73.320 3.844665
73.325 3.823617
73.330 3.963698
73.335 4.197814
73.340 4.334729
73.345 4.184681
73.350 3.969434
73.355 4.098957
73.360 4.158624
73.365 4.325683
73.370 4.387116
73.375 4.328813
73.380 4.236117
73.385 4.118083
73.390 3.864352
73.395 4.046349
73.400 3.927716
73.405 3.62551
73.410 3.488218
73.415 3.629031
73.420 3.857917
73.425 3.671712
73.430 3.5628
73.435 3.640803
73.440 3.857226
73.445 3.905573
73.450 4.203712
73.455 3.990336
73.460 3.794712
73.465 3.825436
73.470 3.994445
73.475 4.301079
73.480 4.400746
73.485 4.252913
73.490 4.460077
73.495 4.469489
73.500 3.959085
73.505 3.675831
73.510 3.420865
73.515 3.122824
73.520 2.991197
73.525 3.024731
73.530 3.2044
73.535 3.262881
73.540 3.534335
73.545 3.719303
73.550 3.73833
73.555 3.907781
73.560 3.921624
73.565 4.250931
73.570 4.148108
73.575 3.959151
73.580 4.229841
73.585 4.201519
73.590 4.157808
73.595 4.068038
73.600 4.091072
73.605 4.291932
73.610 4.121264
73.615 3.439588
73.620 3.532382
73.625 3.419499
73.630 3.333869
73.635 3.418643
73.640 3.48998
73.645 4.138237
73.650 4.271613
73.655 4.105564
73.660 4.510987
73.665 4.646441
73.670 4.366363
73.675 4.157243
73.680 4.059765
73.685 4.649869
73.690 4.981692
73.695 4.618265
73.700 4.436715
73.705 4.310685
73.710 4.311005
73.715 4.041361
73.720 3.49995
73.725 3.279392
73.730 3.297895
73.735 3.305029
73.740 3.541985
73.745 3.428294
73.750 3.628755
73.755 3.59624
73.760 3.535053
73.765 3.464558
73.770 3.27148
73.775 3.096958
73.780 2.970363
73.785 2.629317
73.790 2.849269
73.795 3.18361
73.800 3.248683
73.805 3.309013
73.810 3.555094
73.815 3.684074
73.820 3.853862
73.825 3.693133
73.830 3.369065
73.835 3.226689
73.840 3.183205
73.845 3.332477
73.850 3.591038
73.855 3.453204
73.860 4.034371
73.865 4.373538
73.870 4.605577
73.875 4.379465
73.880 4.20826
73.885 4.167015
73.890 4.046927
73.895 3.413684
73.900 3.291974
73.905 3.677176
73.910 3.977778
73.915 4.071228
73.920 4.195707
73.925 4.389699
73.930 4.612881
73.935 4.379838
73.940 4.169734
73.945 3.981706
73.950 3.837174
73.955 3.695613
73.960 3.402903
73.965 3.432654
73.970 3.509826
73.975 3.752788
73.980 3.942776
73.985 3.758347
73.990 4.027586
73.995 4.149432
74.000 4.008546
74.005 4.061894
74.010 3.764436
74.015 3.730791
74.020 3.868454
74.025 4.007494
74.030 4.1029
74.035 4.310299
74.040 4.172541
74.045 4.288465
74.050 4.358035
74.055 4.313159
74.060 4.233712
74.065 4.308238
74.070 4.494473
74.075 4.418802
74.080 4.340147
74.085 4.106729
74.090 3.937434
74.095 4.00455
74.100 3.69425
74.105 3.362581
74.110 3.476393
74.115 3.478107
74.120 3.389963
74.125 2.976511
74.130 2.878609
74.135 2.98891
74.140 3.412718
74.145 3.380463
74.150 3.784702
74.155 4.080047
74.160 4.463021
74.165 4.921546
74.170 5.010138
74.175 5.146171
74.180 5.141996
74.185 4.738133
74.190 4.490489
74.195 4.469856
74.200 4.277789
74.205 4.050834
74.210 3.945541
74.215 3.832184
74.220 3.82327
74.225 3.771758
74.230 3.383758
74.235 3.353631
74.240 3.574301
74.245 3.466551
74.250 3.708301
74.255 4.13891
74.260 4.278549
74.265 4.389542
74.270 4.332736
74.275 4.151336
74.280 3.945927
74.285 3.936064
74.290 4.074925
74.295 3.885702
74.300 3.779922
74.305 3.917514
74.310 4.221517
74.315 4.251283
74.320 3.719982
74.325 3.502859
74.330 3.808808
74.335 3.75691
74.340 3.300584
74.345 2.979595
74.350 3.379128
74.355 3.444414
74.360 3.371284
74.365 3.047557
74.370 3.202185
74.375 3.469108
74.380 3.405715
74.385 3.051425
74.390 2.793089
74.395 2.520222
74.400 2.560871
74.405 2.337368
74.410 2.137394
74.415 2.20069
74.420 2.319355
74.425 2.811127
74.430 3.483539
74.435 3.752837
74.440 4.144046
74.445 4.316571
74.450 4.287886
74.455 4.139781
74.460 3.944911
74.465 3.98225
74.470 3.695932
74.475 3.62158
74.480 3.60404
74.485 3.743196
74.490 3.82766
74.495 3.644382
74.500 3.361062
74.505 3.414932
74.510 3.248665
74.515 3.370719
74.520 3.538234
74.525 3.756973
74.530 3.981692
74.535 4.013455
74.540 3.874617
74.545 3.700956
74.550 3.452827
74.555 3.442481
74.560 3.470777
74.565 3.515869
74.570 3.959903
74.575 4.232291
74.580 4.340768
74.585 4.49214
74.590 4.48587
74.595 4.218392
74.600 3.631559
74.605 3.208678
74.610 3.193609
74.615 3.333892
74.620 3.38401
74.625 3.579829
74.630 3.723321
74.635 3.562329
74.640 3.490323
74.645 3.58397
74.650 3.552483
74.655 3.377531
74.660 3.447956
74.665 3.501887
74.670 3.934281
74.675 4.007817
74.680 4.107624
74.685 4.388827
74.690 4.35201
74.695 4.453312
74.700 4.442415
74.705 4.713979
74.710 4.444953
74.715 3.981139
74.720 3.50637
74.725 3.238009
74.730 3.02574
74.735 2.996886
74.740 2.662647
74.745 3.100017
74.750 3.341402
74.755 3.414136
74.760 3.8622
74.765 4.038664
74.770 4.119079
74.775 4.094672
74.780 4.102888
74.785 4.10952
74.790 4.148032
74.795 4.03334
74.800 3.739513
74.805 3.932933
74.810 3.850803
74.815 3.53305
74.820 3.781842
74.825 3.774945
74.830 3.758023
74.835 3.766133
74.840 3.910091
74.845 4.001872
74.850 3.952255
74.855 3.5378
74.860 3.34044
74.865 3.259475
74.870 3.236924
74.875 2.892008
74.880 2.760779
74.885 2.90285
74.890 2.921045
74.895 3.103612
74.900 3.252375
74.905 3.357943
74.910 3.773284
74.915 4.098417
74.920 4.202807
74.925 4.259072
74.930 4.459952
74.935 4.562386
74.940 4.849221
74.945 4.743355
74.950 4.648388
74.955 4.828861
74.960 4.933499
74.965 4.801203
74.970 4.332606
74.975 4.148002
74.980 4.110954
74.985 3.872183
74.990 3.589866
74.995 3.453344
75.000 3.452838
