!@!!GADDS PLOTSO FILE: Chi integration type
!@!!Title/SampleName: map-c0
!@!!Comment: ?
!@!!User: Bruker Instrument Administrator
!@!!Site: University of Illinois Chicago
!@!!Frame: map-c0_01_000.gfrm
!@!!Wavelengths    1.54184   1.54056   1.54439
!@!!Frame angles: 2Theta: 65.000 Omega: 50.000 Phi: 0.000 Chi: 90.000
!@!!Integration range: 2Theta: 55.000 to 75.000  Gamma: -105.000 to -75.000
!@!!Integration method: bin normalized
!@!N
!@!SS
!@!M
!@!L 0.0 0.0 0.0 0.0
!@!XDegrees
!@!YCounts
55.000 2.888984
55.005 2.797631
55.010 2.774483
55.015 2.504906
55.020 2.221271
55.025 2.137358
55.030 2.321409
55.035 2.518685
55.040 2.730997
55.045 2.733877
55.050 2.899889
55.055 3.011159
55.060 3.040666
55.065 2.964768
55.070 2.963403
55.075 2.772069
55.080 2.563959
55.085 2.32437
55.090 2.476348
55.095 2.598578
55.100 2.685982
55.105 2.961724
55.110 3.111598
55.115 3.283735
55.120 3.342135
55.125 3.206168
55.130 3.153088
55.135 2.795823
55.140 2.68017
55.145 2.730574
55.150 2.818726
55.155 2.882186
55.160 3.136307
55.165 3.30562
55.170 3.376683
55.175 3.272881
55.180 3.270812
55.185 2.97386
55.190 3.036497
55.195 2.888642
55.200 2.880067
55.205 2.833302
55.210 2.968709
55.215 3.160163
55.220 3.428339
55.225 3.318917
55.230 3.324494
55.235 3.284353
55.240 3.513068
55.245 3.429599
55.250 3.396097
55.255 3.421958
55.260 3.066498
55.265 2.973464
55.270 2.948363
55.275 2.861633
55.280 2.851224
55.285 2.58135
55.290 2.789909
55.295 3.267259
55.300 3.272078
55.305 3.263705
55.310 3.502194
55.315 3.596369
55.320 3.750364
55.325 3.723447
55.330 3.602541
55.335 3.795847
55.340 3.722672
55.345 3.363975
55.350 3.45056
55.355 3.551093
55.360 3.273896
55.365 3.507293
55.370 3.460263
55.375 3.59306
55.380 3.999449
55.385 4.137294
55.390 4.110302
55.395 4.007469
55.400 3.870014
55.405 3.79888
55.410 3.688844
55.415 3.693957
55.420 3.413285
55.425 3.78544
55.430 4.112934
55.435 4.02559
55.440 3.957438
55.445 3.631388
55.450 3.238443
55.455 2.987911
55.460 2.525667
55.465 2.362269
55.470 2.451518
55.475 2.619854
55.480 2.954066
55.485 3.008036
55.490 3.33484
55.495 3.448809
55.500 3.390186
55.505 3.703814
55.510 3.689699
55.515 3.556114
55.520 3.472482
55.525 3.371955
55.530 3.558745
55.535 3.610087
55.540 3.526937
55.545 3.580136
55.550 3.636039
55.555 3.69647
55.560 3.565727
55.565 3.531945
55.570 3.517559
55.575 3.331304
55.580 3.192944
55.585 3.063714
55.590 3.21576
55.595 3.31143
55.600 3.261894
55.605 3.250401
55.610 3.289912
55.615 3.300857
55.620 3.830295
55.625 3.831395
55.630 3.605572
55.635 3.609874
55.640 3.536574
55.645 3.571757
55.650 3.566914
55.655 3.248029
55.660 3.385512
55.665 3.292867
55.670 3.137543
55.675 3.37581
55.680 3.382983
55.685 3.339128
55.690 3.36476
55.695 3.413433
55.700 3.415328
55.705 3.222873
55.710 3.134891
55.715 3.182891
55.720 3.26453
55.725 2.925577
55.730 3.04251
55.735 3.511137
55.740 3.576945
55.745 3.58581
55.750 3.430602
55.755 3.267119
55.760 3.166951
55.765 2.871471
55.770 2.808143
55.775 2.959512
55.780 3.09769
55.785 3.345239
55.790 3.678759
55.795 3.753731
55.800 3.69904
55.805 3.587579
55.810 3.540802
55.815 3.336597
55.820 3.27674
55.825 3.029258
55.830 3.330991
55.835 3.648724
55.840 3.571121
55.845 3.43424
55.850 3.293413
55.855 3.192362
55.860 3.232273
55.865 3.057405
55.870 2.840391
55.875 2.811739
55.880 2.852732
55.885 3.001875
55.890 3.024398
55.895 2.799964
55.900 2.852544
55.905 3.071628
55.910 3.092869
55.915 3.361137
55.920 3.540815
55.925 3.725982
55.930 3.931025
55.935 3.85397
55.940 3.763862
55.945 3.779211
55.950 3.356523
55.955 3.140852
55.960 3.099829
55.965 3.07794
55.970 2.789164
55.975 2.730497
55.980 2.827752
55.985 3.130692
55.990 2.988201
55.995 2.682599
56.000 2.545253
56.005 2.984144
56.010 3.213153
56.015 2.89152
56.020 2.68694
56.025 2.894214
56.030 3.406813
56.035 3.258352
56.040 3.0624
56.045 3.080508
56.050 3.247432
56.055 3.670424
56.060 3.557781
56.065 3.674222
56.070 3.653831
56.075 3.752317
56.080 4.014237
56.085 3.9955
56.090 3.93263
56.095 4.182745
56.100 4.205973
56.105 4.329813
56.110 4.20006
56.115 4.101477
56.120 4.118164
56.125 3.898793
56.130 3.65975
56.135 3.651682
56.140 3.776589
56.145 3.744951
56.150 3.676894
56.155 3.625596
56.160 3.729766
56.165 4.051198
56.170 4.020669
56.175 4.019182
56.180 4.107744
56.185 4.092286
56.190 4.055134
56.195 3.863264
56.200 3.729707
56.205 3.789813
56.210 3.604327
56.215 3.473289
56.220 3.441607
56.225 3.822799
56.230 3.591194
56.235 3.423685
56.240 3.36764
56.245 3.33508
56.250 3.388704
56.255 3.240689
56.260 3.028788
56.265 3.316302
56.270 3.485555
56.275 3.394583
56.280 3.444776
56.285 3.609086
56.290 3.781479
56.295 3.586631
56.300 3.315463
56.305 3.205723
56.310 3.437427
56.315 3.568784
56.320 3.587324
56.325 3.487513
56.330 3.863562
56.335 3.755802
56.340 3.922277
56.345 3.782179
56.350 3.57852
56.355 3.364598
56.360 3.269173
56.365 2.96371
56.370 2.880203
56.375 2.535886
56.380 2.412028
56.385 2.5095
56.390 2.771482
56.395 2.921966
56.400 3.084307
56.405 3.321103
56.410 3.367116
56.415 3.505379
56.420 3.347041
56.425 3.383434
56.430 3.530905
56.435 3.7002
56.440 3.85055
56.445 4.311663
56.450 4.374595
56.455 4.367834
56.460 4.142554
56.465 4.14381
56.470 4.250222
56.475 4.213652
56.480 3.877616
56.485 4.027251
56.490 3.857772
56.495 3.889823
56.500 3.820068
56.505 3.542984
56.510 3.750089
56.515 3.730085
56.520 3.618553
56.525 3.634448
56.530 3.659717
56.535 3.557048
56.540 3.425896
56.545 3.303508
56.550 3.379076
56.555 3.40808
56.560 3.342869
56.565 3.277079
56.570 3.239912
56.575 3.429207
56.580 3.420549
56.585 3.149932
56.590 3.338687
56.595 3.60407
56.600 3.574997
56.605 3.522425
56.610 3.220888
56.615 3.169326
56.620 3.173398
56.625 3.133327
56.630 3.019559
56.635 3.228418
56.640 3.467222
56.645 3.739835
56.650 3.720316
56.655 4.049541
56.660 4.133358
56.665 4.026699
56.670 3.699502
56.675 3.754298
56.680 3.870342
56.685 3.844902
56.690 3.660939
56.695 3.69471
56.700 3.691967
56.705 3.584934
56.710 3.209122
56.715 2.916742
56.720 2.94044
56.725 2.905509
56.730 2.927292
56.735 3.068289
56.740 3.202836
56.745 3.343225
56.750 3.792098
56.755 4.154219
56.760 4.005763
56.765 4.06905
56.770 4.112281
56.775 3.908938
56.780 3.916138
56.785 3.363121
56.790 3.47696
56.795 3.512852
56.800 3.065871
56.805 2.976311
56.810 2.986882
56.815 3.077553
56.820 2.879199
56.825 2.819683
56.830 2.917093
56.835 3.220446
56.840 3.4248
56.845 3.237673
56.850 3.589518
56.855 3.766435
56.860 3.501646
56.865 3.411473
56.870 3.455975
56.875 3.529915
56.880 3.649601
56.885 3.500839
56.890 3.227668
56.895 3.384364
56.900 3.377676
56.905 3.44277
56.910 3.6235
56.915 3.546508
56.920 3.59107
56.925 3.926035
56.930 4.034368
56.935 4.109901
56.940 3.873192
56.945 3.743779
56.950 3.720624
56.955 3.379551
56.960 3.156553
56.965 2.919801
56.970 2.811805
56.975 2.856008
56.980 3.011903
56.985 2.905808
56.990 3.053378
56.995 3.351724
57.000 3.497478
57.005 3.409151
57.010 3.388427
57.015 3.406693
57.020 3.419685
57.025 3.297951
57.030 3.234598
57.035 3.136803
57.040 3.19447
57.045 3.047115
57.050 3.430183
57.055 3.961111
57.060 4.057754
57.065 4.015778
57.070 4.171628
57.075 4.20845
57.080 4.392631
57.085 4.046042
57.090 3.987503
57.095 4.207582
57.100 4.108417
57.105 4.054151
57.110 4.052613
57.115 4.03101
57.120 4.056348
57.125 3.567292
57.130 3.292776
57.135 3.286078
57.140 3.21344
57.145 3.205756
57.150 3.15825
57.155 3.141497
57.160 3.297324
57.165 3.671256
57.170 3.896319
57.175 3.796839
57.180 3.918459
57.185 3.6788
57.190 3.746553
57.195 3.763897
57.200 3.4675
57.205 3.588457
57.210 3.715276
57.215 3.636887
57.220 3.888796
57.225 3.756952
57.230 3.978093
57.235 4.026752
57.240 3.971741
57.245 3.879236
57.250 3.878811
57.255 3.995558
57.260 4.139247
57.265 3.811781
57.270 3.867396
57.275 3.867995
57.280 4.018498
57.285 3.913366
57.290 3.578545
57.295 3.537337
57.300 3.619423
57.305 3.629673
57.310 3.407367
57.315 3.142193
57.320 3.384436
57.325 3.784289
57.330 3.733043
57.335 3.493855
57.340 3.178502
57.345 3.171693
57.350 3.007159
57.355 2.490543
57.360 2.234922
57.365 2.171827
57.370 2.280244
57.375 2.910883
57.380 3.141041
57.385 3.271804
57.390 3.304571
57.395 3.429368
57.400 3.707819
57.405 3.634232
57.410 3.219839
57.415 3.301538
57.420 3.563075
57.425 3.660094
57.430 3.833834
57.435 3.865178
57.440 4.044263
57.445 4.336102
57.450 4.359838
57.455 4.210777
57.460 4.149517
57.465 3.868666
57.470 3.497083
57.475 3.303608
57.480 3.265066
57.485 3.277302
57.490 3.40844
57.495 3.485666
57.500 3.537961
57.505 3.882326
57.510 3.856691
57.515 3.732357
57.520 3.876116
57.525 3.812812
57.530 3.548387
57.535 3.308912
57.540 3.081069
57.545 2.998454
57.550 3.149901
57.555 3.241302
57.560 3.548693
57.565 3.904921
57.570 4.056192
57.575 4.377302
57.580 4.413359
57.585 4.19899
57.590 3.958553
57.595 3.687173
57.600 3.673538
57.605 3.787514
57.610 3.614608
57.615 3.604439
57.620 3.640422
57.625 3.736108
57.630 3.914679
57.635 4.22691
57.640 4.13951
57.645 4.044878
57.650 4.130538
57.655 4.104661
57.660 4.134549
57.665 3.889963
57.670 3.58437
57.675 3.574787
57.680 3.722956
57.685 3.509272
57.690 3.42757
57.695 3.16734
57.700 3.067323
57.705 3.082506
57.710 3.200481
57.715 2.894681
57.720 3.184727
57.725 3.304358
57.730 3.338709
57.735 3.653361
57.740 3.626353
57.745 3.495305
57.750 3.819188
57.755 3.733726
57.760 4.044027
57.765 4.122866
57.770 4.116837
57.775 4.270507
57.780 4.412703
57.785 4.071324
57.790 4.171079
57.795 3.897755
57.800 3.903574
57.805 4.143414
57.810 4.343791
57.815 4.345634
57.820 4.80351
57.825 5.127761
57.830 5.310362
57.835 5.413736
57.840 5.048805
57.845 5.039881
57.850 5.239421
57.855 5.132851
57.860 5.077577
57.865 5.209516
57.870 5.252414
57.875 5.456801
57.880 5.453749
57.885 5.323757
57.890 5.099893
57.895 5.222694
57.900 5.746999
57.905 6.218129
57.910 6.264552
57.915 6.41527
57.920 6.562643
57.925 6.457277
57.930 6.341692
57.935 6.299154
57.940 6.229611
57.945 6.468565
57.950 6.630969
57.955 6.768786
57.960 6.819632
57.965 6.595073
57.970 6.197992
57.975 6.181206
57.980 6.310038
57.985 6.499827
57.990 6.456776
57.995 6.688091
58.000 7.222867
58.005 7.709203
58.010 7.996309
58.015 7.927206
58.020 7.878429
58.025 8.217393
58.030 8.137118
58.035 7.64891
58.040 7.785526
58.045 7.622938
58.050 7.619161
58.055 7.846224
58.060 7.614325
58.065 7.930146
58.070 8.418749
58.075 8.598251
58.080 9.104924
58.085 9.043551
58.090 9.145021
58.095 9.589367
58.100 9.538435
58.105 9.054435
58.110 8.850407
58.115 8.962321
58.120 9.027244
58.125 8.878708
58.130 8.424655
58.135 8.556103
58.140 8.768475
58.145 8.680953
58.150 8.395298
58.155 8.491443
58.160 8.471789
58.165 8.778715
58.170 8.879236
58.175 9.128095
58.180 9.224627
58.185 9.469592
58.190 9.492971
58.195 9.812337
58.200 9.801869
58.205 9.796632
58.210 9.243291
58.215 8.713462
58.220 8.816599
58.225 8.811346
58.230 8.461815
58.235 8.304596
58.240 8.126333
58.245 8.521194
58.250 8.758473
58.255 8.368371
58.260 8.477286
58.265 8.296061
58.270 8.008288
58.275 8.157022
58.280 8.133672
58.285 7.911629
58.290 7.649081
58.295 7.844305
58.300 8.21274
58.305 8.581285
58.310 8.418304
58.315 8.394503
58.320 8.23787
58.325 8.113583
58.330 7.563771
58.335 7.529019
58.340 7.126932
58.345 6.816104
58.350 6.405694
58.355 6.667141
58.360 6.683758
58.365 6.375921
58.370 5.845886
58.375 5.948998
58.380 5.715302
58.385 5.607118
58.390 5.153435
58.395 5.105352
58.400 5.575768
58.405 5.740906
58.410 5.474535
58.415 5.55013
58.420 5.786517
58.425 5.892618
58.430 5.644535
58.435 5.309515
58.440 4.904809
58.445 4.81198
58.450 4.744981
58.455 4.836148
58.460 4.684952
58.465 4.783985
58.470 4.85732
58.475 5.154104
58.480 5.151031
58.485 5.048665
58.490 5.175323
58.495 5.439359
58.500 5.197896
58.505 5.004553
58.510 4.961959
58.515 5.150001
58.520 5.346426
58.525 4.932233
58.530 4.744874
58.535 4.7943
58.540 4.743367
58.545 4.628407
58.550 4.262307
58.555 3.944692
58.560 3.881358
58.565 3.76162
58.570 3.773107
58.575 3.883522
58.580 3.88839
58.585 3.944772
58.590 3.92085
58.595 3.864978
58.600 4.086477
58.605 3.946943
58.610 3.97682
58.615 4.067526
58.620 4.224466
58.625 4.373538
58.630 4.266448
58.635 4.185693
58.640 4.441609
58.645 4.602239
58.650 4.468831
58.655 4.517038
58.660 4.521338
58.665 4.60948
58.670 4.466945
58.675 4.105511
58.680 3.99936
58.685 4.138472
58.690 4.045099
58.695 3.895643
58.700 3.961913
58.705 3.877586
58.710 3.749675
58.715 3.722417
58.720 3.694422
58.725 3.523723
58.730 3.495256
58.735 3.33142
58.740 3.690049
58.745 3.939366
58.750 3.961569
58.755 3.910003
58.760 4.037459
58.765 4.172624
58.770 4.406731
58.775 4.296767
58.780 4.40286
58.785 4.280997
58.790 4.276705
58.795 4.477297
58.800 4.342725
58.805 4.006277
58.810 3.868201
58.815 3.779912
58.820 3.955068
58.825 3.891922
58.830 3.51751
58.835 3.301185
58.840 3.045159
58.845 3.136011
58.850 3.109296
58.855 3.305121
58.860 3.616307
58.865 3.936449
58.870 4.101824
58.875 4.412505
58.880 4.41908
58.885 4.28662
58.890 3.862059
58.895 3.818106
58.900 3.749017
58.905 3.618283
58.910 3.446718
58.915 3.39795
58.920 3.231458
58.925 3.445125
58.930 3.671069
58.935 3.975471
58.940 4.176619
58.945 4.172828
58.950 4.480414
58.955 4.755545
58.960 4.84092
58.965 4.338146
58.970 4.494174
58.975 4.8098
58.980 5.171409
58.985 5.300402
58.990 5.194883
58.995 4.80391
59.000 4.776874
59.005 4.546794
59.010 4.439693
59.015 4.437659
59.020 4.018639
59.025 4.004678
59.030 4.104042
59.035 4.409979
59.040 4.054211
59.045 3.647804
59.050 3.551491
59.055 3.828596
59.060 3.709928
59.065 3.676629
59.070 3.52512
59.075 3.738347
59.080 4.006868
59.085 3.630045
59.090 3.583147
59.095 3.610289
59.100 3.629068
59.105 3.433499
59.110 3.342179
59.115 3.513025
59.120 3.662954
59.125 3.756688
59.130 3.861584
59.135 3.849548
59.140 3.885686
59.145 3.879561
59.150 3.832347
59.155 3.586317
59.160 3.490022
59.165 3.597356
59.170 3.481767
59.175 3.714447
59.180 3.792207
59.185 3.771689
59.190 4.207045
59.195 4.28504
59.200 4.210795
59.205 4.336858
59.210 4.181738
59.215 4.04454
59.220 4.018981
59.225 3.710816
59.230 3.533301
59.235 3.533566
59.240 3.619331
59.245 3.58601
59.250 3.77471
59.255 4.117854
59.260 4.135977
59.265 4.144228
59.270 4.314218
59.275 4.358108
59.280 4.141711
59.285 3.773456
59.290 3.785919
59.295 3.81955
59.300 3.929594
59.305 3.792723
59.310 3.762028
59.315 3.924933
59.320 3.973936
59.325 3.531242
59.330 3.655715
59.335 3.701086
59.340 3.484977
59.345 3.526911
59.350 3.714167
59.355 3.914169
59.360 4.401918
59.365 4.309164
59.370 4.450695
59.375 4.941125
59.380 5.054966
59.385 5.094801
59.390 4.895113
59.395 4.866388
59.400 4.861826
59.405 4.730838
59.410 4.448884
59.415 4.653608
59.420 4.878488
59.425 4.836522
59.430 4.58168
59.435 4.741838
59.440 4.588973
59.445 4.480789
59.450 3.998467
59.455 3.87763
59.460 3.996169
59.465 4.206204
59.470 3.962353
59.475 3.916074
59.480 3.870678
59.485 3.75762
59.490 3.648649
59.495 3.766178
59.500 3.590957
59.505 3.812695
59.510 4.007849
59.515 4.024832
59.520 4.13114
59.525 4.220605
59.530 3.765998
59.535 3.723317
59.540 3.560343
59.545 3.731797
59.550 4.149786
59.555 4.269109
59.560 4.398536
59.565 4.914389
59.570 5.067142
59.575 5.069391
59.580 4.553021
59.585 4.133379
59.590 4.040603
59.595 4.124826
59.600 3.938369
59.605 3.935288
59.610 3.768441
59.615 3.963683
59.620 4.123147
59.625 4.189573
59.630 4.01314
59.635 3.940752
59.640 3.896475
59.645 4.132121
59.650 4.189825
59.655 4.040792
59.660 3.731508
59.665 3.779698
59.670 4.006383
59.675 3.905574
59.680 3.875531
59.685 4.004936
59.690 3.940599
59.695 4.322835
59.700 4.500585
59.705 4.313536
59.710 4.48856
59.715 4.817713
59.720 4.947514
59.725 4.981255
59.730 4.92835
59.735 4.905807
59.740 4.92345
59.745 4.877257
59.750 4.409917
59.755 4.17892
59.760 4.341025
59.765 4.259644
59.770 4.255985
59.775 4.417088
59.780 4.456396
59.785 4.748143
59.790 4.933334
59.795 4.939509
59.800 4.861074
59.805 4.885629
59.810 4.86081
59.815 5.077337
59.820 5.064736
59.825 5.018375
59.830 4.998049
59.835 5.136721
59.840 5.191654
59.845 5.077571
59.850 4.792218
59.855 4.839723
59.860 4.696433
59.865 4.355884
59.870 3.931345
59.875 3.819883
59.880 3.675008
59.885 3.752761
59.890 3.663911
59.895 3.667883
59.900 3.883323
59.905 4.044981
59.910 4.066023
59.915 4.014817
59.920 3.903085
59.925 4.16439
59.930 4.49458
59.935 4.150248
59.940 3.975478
59.945 3.740703
59.950 3.974178
59.955 3.88025
59.960 3.521937
59.965 3.27738
59.970 3.499286
59.975 3.875451
59.980 4.084377
59.985 3.937634
59.990 3.986608
59.995 3.890229
60.000 3.977816
60.005 4.067776
60.010 3.953135
60.015 4.16256
60.020 4.282419
60.025 4.280598
60.030 4.456566
60.035 4.69828
60.040 4.567288
60.045 4.442705
60.050 4.415885
60.055 4.40942
60.060 4.303196
60.065 4.102116
60.070 3.959931
60.075 4.135428
60.080 4.200272
60.085 4.25863
60.090 4.438017
60.095 4.377877
60.100 4.377924
60.105 4.19575
60.110 3.936094
60.115 3.69046
60.120 3.279461
60.125 3.228899
60.130 3.411442
60.135 3.355386
60.140 3.509913
60.145 3.73784
60.150 4.44362
60.155 5.093921
60.160 5.104961
60.165 5.288098
60.170 5.376213
60.175 5.29951
60.180 5.04904
60.185 4.393365
60.190 4.285465
60.195 4.153664
60.200 3.972181
60.205 3.938015
60.210 3.797758
60.215 4.028075
60.220 4.076009
60.225 3.746518
60.230 3.75727
60.235 3.830924
60.240 3.872689
60.245 4.010638
60.250 3.859231
60.255 3.861205
60.260 4.091794
60.265 3.946719
60.270 3.689534
60.275 3.762308
60.280 3.611463
60.285 3.75838
60.290 3.744309
60.295 3.830823
60.300 4.256413
60.305 4.388906
60.310 4.756873
60.315 5.006207
60.320 5.250205
60.325 4.973566
60.330 4.486744
60.335 4.33786
60.340 4.498932
60.345 4.087622
60.350 4.043041
60.355 4.251515
60.360 4.730632
60.365 4.722717
60.370 4.459252
60.375 4.328302
60.380 4.352668
60.385 4.057621
60.390 3.708583
60.395 3.851242
60.400 3.869269
60.405 3.800799
60.410 3.788011
60.415 3.785789
60.420 3.856234
60.425 3.707092
60.430 3.668145
60.435 3.821648
60.440 3.817349
60.445 3.884519
60.450 4.24219
60.455 4.50596
60.460 4.570714
60.465 4.335969
60.470 4.598849
60.475 4.733657
60.480 4.613944
60.485 4.51509
60.490 4.694879
60.495 4.814631
60.500 5.032162
60.505 4.882203
60.510 5.087226
60.515 5.19684
60.520 4.706431
60.525 4.208969
60.530 3.817457
60.535 3.912734
60.540 4.14464
60.545 3.777094
60.550 3.802126
60.555 4.137084
60.560 4.545437
60.565 5.318052
60.570 5.157247
60.575 4.882046
60.580 4.741704
60.585 4.736357
60.590 5.009624
60.595 4.901784
60.600 4.234772
60.605 4.503805
60.610 4.856729
60.615 5.202038
60.620 5.071598
60.625 4.819695
60.630 5.052288
60.635 5.157894
60.640 4.786749
60.645 4.839283
60.650 4.976379
60.655 5.000082
60.660 5.232273
60.665 5.031393
60.670 5.064399
60.675 4.994649
60.680 4.778422
60.685 4.464422
60.690 4.466138
60.695 4.210965
60.700 4.143561
60.705 4.37247
60.710 4.711053
60.715 4.899191
60.720 5.233571
60.725 5.079158
60.730 4.816164
60.735 4.535145
60.740 4.607647
60.745 4.412638
60.750 4.137351
60.755 4.236398
60.760 4.262937
60.765 4.44227
60.770 4.604186
60.775 4.553444
60.780 4.714094
60.785 4.792844
60.790 4.699506
60.795 4.55555
60.800 4.359916
60.805 4.343082
60.810 4.1077
60.815 4.088595
60.820 4.052171
60.825 4.092337
60.830 4.482645
60.835 4.821387
60.840 5.086035
60.845 5.094268
60.850 5.064018
60.855 5.094552
60.860 4.972754
60.865 4.93936
60.870 4.756135
60.875 4.395961
60.880 4.419364
60.885 4.470589
60.890 4.391478
60.895 4.220398
60.900 4.033516
60.905 3.962902
60.910 3.991817
60.915 3.963817
60.920 3.630571
60.925 3.356638
60.930 3.544249
60.935 3.528162
60.940 3.611622
60.945 3.759322
60.950 3.821659
60.955 4.296668
60.960 4.607546
60.965 4.703204
60.970 4.815354
60.975 4.639987
60.980 4.494718
60.985 4.28083
60.990 4.250601
60.995 4.197484
61.000 4.066587
61.005 4.59928
61.010 4.862196
61.015 4.753423
61.020 4.713274
61.025 4.721251
61.030 4.581554
61.035 4.433333
61.040 4.188289
61.045 4.051013
61.050 3.989069
61.055 4.141028
61.060 4.244404
61.065 4.686105
61.070 4.750475
61.075 4.393957
61.080 4.316627
61.085 4.629735
61.090 4.546875
61.095 4.420582
61.100 4.166303
61.105 3.837076
61.110 3.91316
61.115 4.225255
61.120 4.074817
61.125 4.136451
61.130 4.182704
61.135 4.012274
61.140 4.1936
61.145 4.332722
61.150 4.377458
61.155 4.082905
61.160 3.891732
61.165 3.657591
61.170 3.774589
61.175 3.788172
61.180 3.646159
61.185 3.35041
61.190 3.465662
61.195 3.577389
61.200 3.953588
61.205 3.93608
61.210 3.92576
61.215 3.97121
61.220 4.057188
61.225 3.913391
61.230 3.909232
61.235 3.758855
61.240 4.045261
61.245 3.999996
61.250 4.1093
61.255 4.211118
61.260 4.455464
61.265 4.506159
61.270 4.577559
61.275 4.570023
61.280 4.500267
61.285 4.422775
61.290 4.406582
61.295 4.20426
61.300 4.306192
61.305 4.106414
61.310 4.098447
61.315 4.111859
61.320 4.022638
61.325 4.159266
61.330 4.214601
61.335 4.001127
61.340 4.016386
61.345 3.893959
61.350 3.936812
61.355 4.255283
61.360 4.698758
61.365 4.633323
61.370 4.654748
61.375 4.570518
61.380 4.879718
61.385 4.915437
61.390 4.702022
61.395 4.106666
61.400 4.154486
61.405 4.043212
61.410 3.879918
61.415 3.567683
61.420 3.669569
61.425 3.397715
61.430 3.314722
61.435 3.536154
61.440 3.872412
61.445 4.271351
61.450 4.729735
61.455 4.974028
61.460 5.36906
61.465 5.922012
61.470 5.822143
61.475 5.98339
61.480 5.686518
61.485 5.180279
61.490 4.837236
61.495 5.044206
61.500 4.720969
61.505 4.610541
61.510 4.535625
61.515 4.432259
61.520 4.201954
61.525 4.183323
61.530 3.794181
61.535 4.108856
61.540 4.181402
61.545 4.080294
61.550 4.251919
61.555 4.593087
61.560 4.353855
61.565 4.231921
61.570 4.178134
61.575 4.118725
61.580 4.047252
61.585 3.996591
61.590 3.888535
61.595 4.140579
61.600 4.226778
61.605 3.846867
61.610 3.865367
61.615 3.892611
61.620 4.005782
61.625 4.488339
61.630 4.945341
61.635 5.251476
61.640 5.581745
61.645 5.33677
61.650 5.386209
61.655 5.32797
61.660 4.959659
61.665 4.213164
61.670 4.029741
61.675 3.934981
61.680 4.016463
61.685 4.166826
61.690 4.397577
61.695 4.420411
61.700 5.145642
61.705 5.187114
61.710 5.307093
61.715 5.603901
61.720 5.601466
61.725 5.505255
61.730 5.487638
61.735 5.076366
61.740 4.917482
61.745 4.766628
61.750 4.838865
61.755 4.571074
61.760 4.431455
61.765 4.377728
61.770 4.629565
61.775 4.529306
61.780 4.558315
61.785 4.199477
61.790 4.406543
61.795 4.32837
61.800 4.058568
61.805 3.791778
61.810 4.12012
61.815 4.232379
61.820 4.34927
61.825 4.512465
61.830 4.806836
61.835 5.164113
61.840 5.136024
61.845 4.964988
61.850 4.72573
61.855 4.454681
61.860 4.361984
61.865 4.161911
61.870 3.78161
61.875 3.622044
61.880 3.603492
61.885 3.952842
61.890 4.19608
61.895 4.175824
61.900 4.750521
61.905 4.905486
61.910 4.922722
61.915 5.09095
61.920 4.896884
61.925 4.636412
61.930 4.32298
61.935 4.052653
61.940 3.948915
61.945 4.052218
61.950 4.029432
61.955 4.072514
61.960 4.213995
61.965 4.176353
61.970 3.955359
61.975 4.146023
61.980 3.874438
61.985 4.033082
61.990 4.09454
61.995 4.230513
62.000 4.409343
62.005 4.604873
62.010 4.651032
62.015 4.706032
62.020 4.299364
62.025 4.164181
62.030 4.137316
62.035 4.120406
62.040 4.290635
62.045 4.555236
62.050 4.832066
62.055 5.097812
62.060 5.263958
62.065 5.29113
62.070 5.377725
62.075 5.015481
62.080 5.080092
62.085 5.00795
62.090 4.874769
62.095 4.827412
62.100 4.822689
62.105 4.760495
62.110 4.77628
62.115 4.609158
62.120 4.625454
62.125 4.831366
62.130 5.104218
62.135 4.884549
62.140 5.066082
62.145 5.321448
62.150 4.993855
62.155 4.824113
62.160 4.47912
62.165 4.282656
62.170 4.496041
62.175 4.267521
62.180 3.865816
62.185 3.756945
62.190 3.69725
62.195 3.619954
62.200 3.407427
62.205 3.057618
62.210 3.158453
62.215 3.368626
62.220 3.571939
62.225 3.700941
62.230 3.772566
62.235 3.96908
62.240 4.381755
62.245 4.511858
62.250 4.74708
62.255 4.824655
62.260 4.906302
62.265 5.09409
62.270 5.080886
62.275 4.769886
62.280 4.632478
62.285 4.543387
62.290 4.392775
62.295 4.530111
62.300 4.516699
62.305 4.480431
62.310 4.504389
62.315 4.55387
62.320 4.488787
62.325 4.591112
62.330 4.440297
62.335 4.42395
62.340 4.630287
62.345 4.74927
62.350 4.778154
62.355 4.793949
62.360 4.763587
62.365 4.817193
62.370 4.911492
62.375 4.902945
62.380 4.99148
62.385 4.960457
62.390 4.9303
62.395 5.143288
62.400 5.122833
62.405 4.978436
62.410 4.893544
62.415 4.823786
62.420 4.842368
62.425 4.742933
62.430 4.738857
62.435 4.703117
62.440 4.425305
62.445 4.26181
62.450 4.254041
62.455 4.146614
62.460 4.385857
62.465 4.094228
62.470 4.165745
62.475 4.501839
62.480 4.772931
62.485 4.80768
62.490 4.680832
62.495 4.588868
62.500 4.942441
62.505 4.966934
62.510 4.998575
62.515 4.729922
62.520 4.723912
62.525 4.922487
62.530 5.032368
62.535 4.884086
62.540 4.702515
62.545 4.597699
62.550 4.578674
62.555 4.635315
62.560 4.666128
62.565 4.393692
62.570 4.355836
62.575 4.517285
62.580 4.59005
62.585 4.560918
62.590 4.331746
62.595 4.260515
62.600 4.236984
62.605 4.465319
62.610 4.291069
62.615 4.136375
62.620 4.304372
62.625 4.674491
62.630 4.617907
62.635 4.568208
62.640 4.272741
62.645 4.432446
62.650 4.41311
62.655 4.094292
62.660 4.024094
62.665 4.316216
62.670 4.402066
62.675 4.608878
62.680 4.725141
62.685 4.816959
62.690 4.934763
62.695 4.802073
62.700 4.846165
62.705 4.901645
62.710 4.977807
62.715 4.889044
62.720 5.32904
62.725 5.463374
62.730 5.38547
62.735 5.159508
62.740 5.038571
62.745 4.931943
62.750 4.721673
62.755 4.267824
62.760 4.195563
62.765 4.472297
62.770 4.350917
62.775 4.294636
62.780 4.057141
62.785 4.478857
62.790 4.555174
62.795 4.556077
62.800 4.405324
62.805 4.604779
62.810 4.917611
62.815 5.478516
62.820 5.411704
62.825 5.351424
62.830 5.201327
62.835 5.097346
62.840 5.088948
62.845 4.935401
62.850 4.507946
62.855 4.289543
62.860 4.3529
62.865 4.353709
62.870 4.024611
62.875 3.834569
62.880 3.92001
62.885 3.921304
62.890 3.937148
62.895 4.049617
62.900 4.250013
62.905 4.620779
62.910 4.791274
62.915 4.633045
62.920 4.415263
62.925 4.476061
62.930 4.790594
62.935 4.992118
62.940 5.031251
62.945 5.182004
62.950 5.265266
62.955 5.271084
62.960 5.040699
62.965 4.669428
62.970 4.658011
62.975 4.497694
62.980 4.338159
62.985 4.121672
62.990 4.37641
62.995 4.528426
63.000 4.60884
63.005 4.564499
63.010 4.530684
63.015 4.493591
63.020 4.614651
63.025 4.346261
63.030 4.320432
63.035 4.005928
63.040 3.86783
63.045 3.925579
63.050 3.922837
63.055 4.085571
63.060 4.252889
63.065 4.392812
63.070 4.832
63.075 4.842352
63.080 4.804251
63.085 4.525064
63.090 4.174927
63.095 4.352635
63.100 4.355454
63.105 4.345906
63.110 4.446319
63.115 4.674414
63.120 4.66192
63.125 4.982147
63.130 4.938148
63.135 4.725469
63.140 4.36383
63.145 4.195098
63.150 4.074943
63.155 4.370263
63.160 4.294516
63.165 4.300578
63.170 4.617057
63.175 4.707149
63.180 4.686286
63.185 4.60041
63.190 4.461262
63.195 4.19599
63.200 4.096139
63.205 4.199387
63.210 4.373894
63.215 4.733706
63.220 4.930146
63.225 5.162149
63.230 5.145169
63.235 4.936483
63.240 4.819565
63.245 5.100317
63.250 5.013262
63.255 5.046958
63.260 4.8699
63.265 5.007753
63.270 5.073254
63.275 5.021854
63.280 4.635872
63.285 4.43107
63.290 4.319875
63.295 4.580242
63.300 4.447999
63.305 4.46304
63.310 4.402469
63.315 4.649214
63.320 4.774184
63.325 4.773088
63.330 4.557619
63.335 4.585032
63.340 4.712472
63.345 4.594573
63.350 4.319817
63.355 4.37173
63.360 4.632036
63.365 4.771911
63.370 4.876867
63.375 4.759263
63.380 4.874531
63.385 5.1668
63.390 5.097835
63.395 4.851569
63.400 5.107916
63.405 5.371619
63.410 5.414459
63.415 5.435652
63.420 5.522642
63.425 5.43038
63.430 5.564835
63.435 5.343473
63.440 5.143579
63.445 5.110493
63.450 4.997978
63.455 4.952317
63.460 4.986445
63.465 4.735195
63.470 4.853722
63.475 5.322213
63.480 5.604164
63.485 5.845493
63.490 5.911993
63.495 6.195094
63.500 6.428339
63.505 6.128427
63.510 5.970798
63.515 5.775173
63.520 5.367526
63.525 5.147591
63.530 5.155265
63.535 5.19579
63.540 5.716579
63.545 5.857815
63.550 5.917843
63.555 6.228867
63.560 6.694595
63.565 6.894637
63.570 7.24746
63.575 6.981496
63.580 6.825531
63.585 7.309758
63.590 7.638498
63.595 7.668952
63.600 7.734508
63.605 7.626517
63.610 7.983322
63.615 8.598538
63.620 8.62767
63.625 9.083955
63.630 9.167473
63.635 9.150909
63.640 9.600072
63.645 9.743014
63.650 9.696613
63.655 9.834983
63.660 9.81501
63.665 10.151183
63.670 10.235964
63.675 10.434779
63.680 10.614507
63.685 11.071779
63.690 11.424073
63.695 12.353809
63.700 12.93383
63.705 13.296396
63.710 13.702097
63.715 14.606277
63.720 15.313183
63.725 15.820197
63.730 15.956164
63.735 16.098806
63.740 16.542728
63.745 16.840796
63.750 17.038988
63.755 17.139198
63.760 17.384953
63.765 17.158642
63.770 17.511065
63.775 17.670696
63.780 17.777744
63.785 18.608742
63.790 19.640532
63.795 20.351637
63.800 20.823555
63.805 20.984253
63.810 21.526482
63.815 22.77706
63.820 23.326572
63.825 23.498894
63.830 23.576712
63.835 23.957867
63.840 23.954857
63.845 23.385885
63.850 22.775982
63.855 22.527122
63.860 21.927086
63.865 21.813427
63.870 22.130024
63.875 22.583111
63.880 22.55216
63.885 21.99341
63.890 21.915222
63.895 22.15666
63.900 22.12796
63.905 22.127974
63.910 22.452333
63.915 22.240385
63.920 21.756273
63.925 21.075151
63.930 20.203186
63.935 19.657362
63.940 19.115707
63.945 18.373552
63.950 18.60265
63.955 18.7391
63.960 18.416035
63.965 18.550894
63.970 18.550854
63.975 18.021461
63.980 18.273558
63.985 18.781025
63.990 19.054289
63.995 19.566593
64.000 19.086517
64.005 19.011614
64.010 18.611341
64.015 18.21987
64.020 17.657082
64.025 17.184687
64.030 15.568769
64.035 15.137377
64.040 14.782315
64.045 15.053205
64.050 14.28676
64.055 13.915601
64.060 13.636107
64.065 13.699162
64.070 13.671435
64.075 13.037358
64.080 12.725993
64.085 12.872061
64.090 12.65904
64.095 12.371477
64.100 11.745865
64.105 11.004631
64.110 10.621279
64.115 10.30864
64.120 10.125715
64.125 10.119865
64.130 10.495412
64.135 11.098374
64.140 11.436274
64.145 11.462646
64.150 11.43837
64.155 11.013772
64.160 10.745853
64.165 10.066646
64.170 9.4103
64.175 9.13341
64.180 9.056314
64.185 8.632018
64.190 8.27986
64.195 7.314189
64.200 7.079095
64.205 6.909846
64.210 6.899797
64.215 6.505013
64.220 6.255276
64.225 6.143726
64.230 6.348164
64.235 6.142126
64.240 5.862607
64.245 5.371038
64.250 5.332995
64.255 5.030437
64.260 4.916652
64.265 4.761766
64.270 4.722901
64.275 4.46714
64.280 4.632078
64.285 5.013799
64.290 5.557998
64.295 5.868186
64.300 6.130375
64.305 6.281319
64.310 6.380889
64.315 6.067879
64.320 6.035391
64.325 5.609398
64.330 5.622323
64.335 5.949344
64.340 5.950707
64.345 6.18825
64.350 6.663752
64.355 6.533357
64.360 6.924939
64.365 6.745476
64.370 6.647014
64.375 6.927396
64.380 6.787462
64.385 6.579583
64.390 6.961482
64.395 6.949676
64.400 7.083982
64.405 6.679319
64.410 6.806533
64.415 7.025023
64.420 6.883574
64.425 6.466597
64.430 6.330319
64.435 5.892982
64.440 5.855483
64.445 5.400684
64.450 5.276443
64.455 5.250268
64.460 5.107724
64.465 5.020028
64.470 4.986573
64.475 5.028456
64.480 4.971992
64.485 5.166578
64.490 5.728916
64.495 5.748162
64.500 5.842159
64.505 6.051816
64.510 6.042903
64.515 5.937955
64.520 5.380383
64.525 4.836698
64.530 4.659907
64.535 4.517703
64.540 4.64327
64.545 4.727124
64.550 4.691326
64.555 4.551009
64.560 4.486018
64.565 4.643003
64.570 4.630677
64.575 4.674359
64.580 4.494165
64.585 4.55655
64.590 4.927523
64.595 5.293413
64.600 5.243156
64.605 5.199621
64.610 4.857646
64.615 4.879479
64.620 4.975079
64.625 4.94836
64.630 4.680193
64.635 4.997824
64.640 5.058216
64.645 4.964826
64.650 5.035989
64.655 4.763426
64.660 4.82906
64.665 4.713346
64.670 4.201252
64.675 4.15914
64.680 4.529725
64.685 4.693763
64.690 4.920124
64.695 4.753065
64.700 4.82587
64.705 5.045816
64.710 5.062956
64.715 5.138948
64.720 5.128238
64.725 5.086691
64.730 5.061919
64.735 5.353711
64.740 5.790467
64.745 5.736225
64.750 5.380668
64.755 5.266649
64.760 5.13623
64.765 5.083227
64.770 4.849381
64.775 4.499103
64.780 4.677524
64.785 5.01362
64.790 5.158575
64.795 5.425208
64.800 5.723845
64.805 5.556014
64.810 5.579123
64.815 5.369926
64.820 4.908641
64.825 4.686339
64.830 4.820774
64.835 4.835217
64.840 4.994328
64.845 4.820764
64.850 4.91401
64.855 5.160298
64.860 5.020331
64.865 4.653842
64.870 4.205838
64.875 4.074674
64.880 4.339574
64.885 4.356933
64.890 4.617943
64.895 4.723565
64.900 4.624539
64.905 4.741846
64.910 4.616472
64.915 4.477133
64.920 4.379868
64.925 4.488484
64.930 4.925775
64.935 5.083335
64.940 5.037689
64.945 4.820955
64.950 4.687829
64.955 4.39114
64.960 4.043172
64.965 3.74009
64.970 3.75471
64.975 4.122083
64.980 4.499072
64.985 4.615575
64.990 4.887741
64.995 4.987164
65.000 4.954342
65.005 4.808246
65.010 4.736864
65.015 4.77466
65.020 5.2084
65.025 5.17821
65.030 4.850871
65.035 4.905693
65.040 4.971666
65.045 4.969356
65.050 4.82385
65.055 4.592824
65.060 4.518716
65.065 4.775331
65.070 4.643599
65.075 4.780258
65.080 4.625531
65.085 4.783249
65.090 4.7941
65.095 4.83204
65.100 4.831953
65.105 5.297024
65.110 5.401575
65.115 5.31949
65.120 4.856298
65.125 4.796053
65.130 4.83065
65.135 4.79682
65.140 4.488135
65.145 4.491332
65.150 4.609936
65.155 4.764569
65.160 4.771133
65.165 4.419402
65.170 4.725888
65.175 4.977099
65.180 4.597832
65.185 4.822648
65.190 4.774247
65.195 4.695287
65.200 4.808472
65.205 4.781286
65.210 4.595431
65.215 4.854219
65.220 4.657082
65.225 4.733297
65.230 4.801124
65.235 4.924764
65.240 4.483425
65.245 4.405364
65.250 4.256324
65.255 4.335886
65.260 4.209448
65.265 4.39656
65.270 4.344048
65.275 4.389194
65.280 4.545085
65.285 4.677316
65.290 4.764211
65.295 4.922482
65.300 4.903717
65.305 4.858693
65.310 4.891594
65.315 4.904513
65.320 4.938408
65.325 4.812185
65.330 4.976601
65.335 5.160715
65.340 5.166499
65.345 5.254362
65.350 5.151253
65.355 5.088803
65.360 5.252115
65.365 5.303863
65.370 5.155226
65.375 5.449083
65.380 5.29325
65.385 5.207836
65.390 5.157822
65.395 5.003914
65.400 4.716644
65.405 4.661152
65.410 4.542347
65.415 4.586531
65.420 4.88818
65.425 5.026664
65.430 4.987593
65.435 5.276755
65.440 5.409789
65.445 5.372854
65.450 5.373538
65.455 5.201503
65.460 5.241704
65.465 5.470825
65.470 5.060802
65.475 5.064085
65.480 5.079393
65.485 5.049678
65.490 5.18706
65.495 5.047703
65.500 4.788285
65.505 4.82968
65.510 4.538718
65.515 4.652411
65.520 4.694889
65.525 4.473824
65.530 4.680523
65.535 4.795673
65.540 4.972877
65.545 5.140599
65.550 4.740389
65.555 4.641571
65.560 4.889692
65.565 4.955845
65.570 4.913437
65.575 4.631039
65.580 4.419259
65.585 4.677763
65.590 4.58952
65.595 4.316291
65.600 4.253598
65.605 4.393924
65.610 5.028568
65.615 5.366926
65.620 5.719658
65.625 6.037102
65.630 6.070751
65.635 6.035659
65.640 5.805638
65.645 5.453056
65.650 5.31471
65.655 4.985718
65.660 4.892849
65.665 5.018438
65.670 4.875207
65.675 5.123711
65.680 5.231524
65.685 5.443753
65.690 5.303146
65.695 5.155871
65.700 4.711596
65.705 4.597232
65.710 4.427651
65.715 3.958517
65.720 3.288054
65.725 3.498899
65.730 3.639951
65.735 3.705162
65.740 3.970413
65.745 4.101789
65.750 4.456355
65.755 4.91924
65.760 4.913363
65.765 4.877668
65.770 4.752868
65.775 4.451297
65.780 4.351293
65.785 4.375828
65.790 4.239851
65.795 4.180547
65.800 4.476934
65.805 4.933829
65.810 5.025817
65.815 4.90184
65.820 4.81963
65.825 4.955431
65.830 4.93421
65.835 5.106865
65.840 5.264124
65.845 5.29408
65.850 5.317664
65.855 5.146962
65.860 4.988712
65.865 4.92029
65.870 4.560555
65.875 4.233818
65.880 4.615274
65.885 4.613885
65.890 4.661891
65.895 4.730522
65.900 4.715201
65.905 4.530337
65.910 4.72547
65.915 4.572426
65.920 4.501563
65.925 4.434195
65.930 4.374552
65.935 4.284184
65.940 4.577222
65.945 4.604665
65.950 4.479612
65.955 4.639177
65.960 4.81115
65.965 4.984281
65.970 5.171488
65.975 5.113561
65.980 5.400673
65.985 5.724169
65.990 5.710064
65.995 5.738238
66.000 5.681669
66.005 5.740313
66.010 5.656364
66.015 5.072978
66.020 4.837383
66.025 4.655549
66.030 4.625749
66.035 4.793293
66.040 4.595127
66.045 4.781638
66.050 5.199716
66.055 5.004097
66.060 5.042793
66.065 5.185026
66.070 5.250735
66.075 5.327095
66.080 5.228602
66.085 5.093988
66.090 5.251124
66.095 5.276134
66.100 4.891283
66.105 4.800785
66.110 4.644611
66.115 4.564117
66.120 4.223165
66.125 4.203529
66.130 4.234075
66.135 4.250482
66.140 4.298188
66.145 4.321683
66.150 4.322942
66.155 4.515471
66.160 4.505753
66.165 4.317485
66.170 4.200209
66.175 4.36903
66.180 4.102855
66.185 3.831506
66.190 4.035039
66.195 4.336567
66.200 4.449323
66.205 4.686959
66.210 4.67732
66.215 5.084241
66.220 5.158458
66.225 5.061977
66.230 4.711628
66.235 4.767859
66.240 4.619441
66.245 4.3838
66.250 4.254209
66.255 4.254377
66.260 4.073085
66.265 4.100016
66.270 4.15514
66.275 4.112267
66.280 3.853104
66.285 4.063222
66.290 4.259065
66.295 4.566892
66.300 4.834029
66.305 4.657901
66.310 4.810548
66.315 4.868514
66.320 4.815127
66.325 4.629749
66.330 4.45996
66.335 4.552535
66.340 4.748546
66.345 4.945635
66.350 5.224278
66.355 5.194396
66.360 5.21666
66.365 5.147572
66.370 5.165734
66.375 5.462985
66.380 5.303482
66.385 5.263383
66.390 5.036256
66.395 4.9916
66.400 5.012125
66.405 4.572975
66.410 4.173635
66.415 4.177453
66.420 4.577899
66.425 5.012028
66.430 5.325942
66.435 5.046025
66.440 5.391206
66.445 5.605906
66.450 5.911583
66.455 5.572443
66.460 5.236195
66.465 4.994057
66.470 5.146218
66.475 4.986313
66.480 4.538129
66.485 4.279329
66.490 4.202689
66.495 4.25402
66.500 4.667688
66.505 5.011269
66.510 5.264635
66.515 5.581949
66.520 5.568473
66.525 5.708723
66.530 5.730694
66.535 5.491275
66.540 5.062249
66.545 4.576297
66.550 4.103459
66.555 3.918778
66.560 3.953704
66.565 4.116736
66.570 4.038817
66.575 4.554645
66.580 4.751824
66.585 4.710882
66.590 4.680493
66.595 4.542909
66.600 4.24944
66.605 4.244001
66.610 4.258217
66.615 4.453736
66.620 4.756759
66.625 4.953267
66.630 5.042723
66.635 5.26438
66.640 5.24428
66.645 4.815441
66.650 4.630322
66.655 4.859734
66.660 5.019895
66.665 5.057365
66.670 5.151254
66.675 5.453948
66.680 5.877922
66.685 5.998827
66.690 6.055661
66.695 5.940756
66.700 6.152594
66.705 6.000715
66.710 5.783806
66.715 5.637555
66.720 5.892508
66.725 6.015458
66.730 6.080829
66.735 5.943892
66.740 6.010551
66.745 6.358613
66.750 6.286386
66.755 5.869397
66.760 5.549275
66.765 5.19144
66.770 5.15554
66.775 5.055541
66.780 5.055998
66.785 5.08506
66.790 5.089668
66.795 5.124821
66.800 5.241335
66.805 5.038384
66.810 5.072469
66.815 4.869034
66.820 4.763231
66.825 4.993221
66.830 5.223642
66.835 5.38085
66.840 5.637162
66.845 5.5362
66.850 5.444758
66.855 5.556579
66.860 5.473025
66.865 5.431762
66.870 5.591134
66.875 5.456885
66.880 5.765583
66.885 6.050411
66.890 6.089702
66.895 6.044144
66.900 6.024673
66.905 5.888994
66.910 5.779848
66.915 5.584734
66.920 5.799428
66.925 6.113706
66.930 6.166363
66.935 5.889046
66.940 5.993755
66.945 6.421557
66.950 6.650579
66.955 6.659256
66.960 6.460364
66.965 6.709063
66.970 7.380996
66.975 7.586018
66.980 7.865757
66.985 8.223476
66.990 8.741968
66.995 9.474335
67.000 9.482109
67.005 9.734585
67.010 9.752013
67.015 9.436062
67.020 9.839378
67.025 9.785467
67.030 9.719361
67.035 10.118398
67.040 10.080407
67.045 10.3825
67.050 10.909645
67.055 10.843373
67.060 10.692079
67.065 10.961635
67.070 11.556263
67.075 11.876349
67.080 11.852915
67.085 11.931924
67.090 12.815239
67.095 12.953169
67.100 13.094546
67.105 12.7925
67.110 12.850942
67.115 13.155851
67.120 12.847076
67.125 12.405365
67.130 12.763765
67.135 12.878592
67.140 13.040871
67.145 12.988797
67.150 13.548387
67.155 13.830415
67.160 14.177753
67.165 14.135661
67.170 13.750247
67.175 13.679228
67.180 13.3054
67.185 13.185162
67.190 12.960187
67.195 12.474105
67.200 12.48172
67.205 12.489022
67.210 12.283616
67.215 12.643278
67.220 12.415129
67.225 12.408396
67.230 12.347487
67.235 11.917396
67.240 12.299253
67.245 12.906437
67.250 12.805386
67.255 12.548004
67.260 12.21499
67.265 12.50185
67.270 13.187201
67.275 12.880337
67.280 12.507636
67.285 12.327963
67.290 12.50416
67.295 12.764572
67.300 12.337079
67.305 11.544316
67.310 11.580039
67.315 11.564183
67.320 11.965944
67.325 11.883602
67.330 11.86609
67.335 12.121909
67.340 12.379054
67.345 11.992047
67.350 11.932089
67.355 11.222025
67.360 10.949105
67.365 10.590528
67.370 9.731804
67.375 9.204582
67.380 9.004198
67.385 8.596584
67.390 8.472919
67.395 8.51216
67.400 8.748048
67.405 9.456513
67.410 9.044524
67.415 8.759223
67.420 8.828016
67.425 8.546254
67.430 8.311665
67.435 7.793086
67.440 7.639688
67.445 7.800455
67.450 7.91836
67.455 7.922009
67.460 7.837643
67.465 8.058781
67.470 8.099237
67.475 7.874652
67.480 8.18919
67.485 8.151127
67.490 8.125219
67.495 8.015609
67.500 7.718068
67.505 7.725842
67.510 7.435277
67.515 7.053693
67.520 6.805351
67.525 6.759472
67.530 6.777129
67.535 6.542984
67.540 5.99825
67.545 6.048439
67.550 6.293635
67.555 6.382764
67.560 6.630337
67.565 6.823643
67.570 6.825534
67.575 6.864464
67.580 6.831194
67.585 6.956884
67.590 6.79351
67.595 6.443302
67.600 6.404593
67.605 6.284455
67.610 6.508284
67.615 6.110807
67.620 5.906271
67.625 5.938256
67.630 6.083687
67.635 6.233605
67.640 6.413729
67.645 6.008317
67.650 5.994172
67.655 5.873593
67.660 5.650252
67.665 5.322025
67.670 5.068706
67.675 4.929842
67.680 5.034485
67.685 4.964334
67.690 4.802524
67.695 4.726223
67.700 4.883979
67.705 5.174002
67.710 5.192392
67.715 5.560928
67.720 5.864397
67.725 5.874481
67.730 6.089362
67.735 5.975677
67.740 5.505532
67.745 5.577873
67.750 5.494001
67.755 5.319585
67.760 5.715253
67.765 5.619644
67.770 5.679018
67.775 5.783992
67.780 5.4209
67.785 4.961983
67.790 4.94041
67.795 4.585385
67.800 4.647797
67.805 4.644532
67.810 4.733669
67.815 5.178482
67.820 5.18937
67.825 5.178681
67.830 5.384796
67.835 5.288793
67.840 5.379067
67.845 5.223537
67.850 4.905117
67.855 4.824439
67.860 4.837753
67.865 4.909315
67.870 4.892596
67.875 5.023812
67.880 5.046458
67.885 5.166154
67.890 5.385811
67.895 5.589365
67.900 5.501296
67.905 5.670807
67.910 5.456355
67.915 5.579556
67.920 5.498381
67.925 5.204081
67.930 5.034285
67.935 5.01463
67.940 4.732354
67.945 4.526722
67.950 4.8743
67.955 4.866924
67.960 5.015857
67.965 4.967758
67.970 5.354857
67.975 5.653933
67.980 5.568342
67.985 5.431313
67.990 5.685856
67.995 5.388745
68.000 5.228653
68.005 4.907589
68.010 4.881438
68.015 5.018646
68.020 4.660343
68.025 4.53591
68.030 4.782984
68.035 4.620599
68.040 4.334434
68.045 4.072051
68.050 4.07123
68.055 4.193776
68.060 4.481669
68.065 4.638818
68.070 4.695221
68.075 4.893228
68.080 5.079431
68.085 5.141526
68.090 5.104162
68.095 4.745563
68.100 4.57923
68.105 4.71546
68.110 4.908039
68.115 4.999045
68.120 4.70688
68.125 4.749465
68.130 4.838851
68.135 4.773258
68.140 4.888385
68.145 4.707806
68.150 4.500746
68.155 4.878895
68.160 4.949984
68.165 5.008555
68.170 4.881977
68.175 4.714812
68.180 4.59789
68.185 4.933424
68.190 4.858893
68.195 5.10774
68.200 5.335999
68.205 5.635881
68.210 5.396657
68.215 5.555968
68.220 5.387328
68.225 5.217304
68.230 4.929658
68.235 4.756734
68.240 4.784041
68.245 4.885915
68.250 4.70225
68.255 4.510807
68.260 4.312075
68.265 4.090296
68.270 4.059166
68.275 3.926828
68.280 4.343952
68.285 4.402346
68.290 4.523103
68.295 4.545371
68.300 4.741496
68.305 4.806803
68.310 4.778986
68.315 4.602446
68.320 4.395733
68.325 4.533341
68.330 4.801841
68.335 4.640953
68.340 4.601661
68.345 4.584402
68.350 4.632574
68.355 4.903392
68.360 4.98049
68.365 5.16466
68.370 5.260788
68.375 5.209484
68.380 4.89642
68.385 4.486226
68.390 4.336598
68.395 4.186142
68.400 3.886473
68.405 3.854275
68.410 3.864705
68.415 4.182782
68.420 4.789099
68.425 5.116654
68.430 5.134418
68.435 5.073148
68.440 5.146759
68.445 5.318162
68.450 5.312576
68.455 4.892401
68.460 4.749539
68.465 4.869675
68.470 4.912056
68.475 5.022902
68.480 5.144338
68.485 5.281718
68.490 5.370578
68.495 5.332594
68.500 5.393823
68.505 5.398074
68.510 5.144102
68.515 4.8794
68.520 4.597713
68.525 4.431314
68.530 4.360241
68.535 4.285256
68.540 4.428985
68.545 4.466485
68.550 4.630982
68.555 5.100939
68.560 5.425424
68.565 5.646312
68.570 5.597199
68.575 5.516543
68.580 5.674406
68.585 5.715973
68.590 5.309417
68.595 4.923088
68.600 4.622751
68.605 4.601236
68.610 4.664908
68.615 4.767838
68.620 4.756849
68.625 4.846966
68.630 4.949966
68.635 5.075583
68.640 5.151479
68.645 5.203106
68.650 4.985122
68.655 5.03576
68.660 5.08842
68.665 4.937193
68.670 4.843807
68.675 4.580099
68.680 4.470362
68.685 4.407641
68.690 4.567455
68.695 4.57772
68.700 4.848585
68.705 4.884043
68.710 5.00287
68.715 5.118214
68.720 5.078669
68.725 4.72158
68.730 4.697623
68.735 4.464172
68.740 4.516334
68.745 4.461105
68.750 4.215699
68.755 4.243389
68.760 4.226432
68.765 4.157281
68.770 4.191063
68.775 4.051566
68.780 4.17777
68.785 4.383038
68.790 4.577202
68.795 5.064926
68.800 5.042817
68.805 4.899567
68.810 4.58837
68.815 4.299406
68.820 4.160732
68.825 3.935346
68.830 3.894667
68.835 4.075964
68.840 4.338649
68.845 4.706149
68.850 4.861272
68.855 5.187483
68.860 5.071261
68.865 4.78072
68.870 4.695048
68.875 4.567098
68.880 4.527841
68.885 4.614394
68.890 4.319437
68.895 4.351251
68.900 4.104294
68.905 4.070223
68.910 4.052778
68.915 4.093171
68.920 4.274538
68.925 4.380853
68.930 4.67224
68.935 4.89196
68.940 4.950237
68.945 5.047055
68.950 5.060261
68.955 5.083846
68.960 5.244016
68.965 5.326582
68.970 5.506802
68.975 5.735312
68.980 5.68094
68.985 5.279212
68.990 4.944468
68.995 4.649674
69.000 4.233063
69.005 3.81715
69.010 3.690174
69.015 3.746622
69.020 3.952377
69.025 4.101301
69.030 4.082982
69.035 4.114518
69.040 4.281469
69.045 4.431401
69.050 4.607966
69.055 4.607145
69.060 4.464128
69.065 4.400852
69.070 4.330735
69.075 4.394227
69.080 4.168322
69.085 4.012667
69.090 3.931631
69.095 3.979363
69.100 4.083531
69.105 4.330689
69.110 4.06226
69.115 3.918793
69.120 4.117217
69.125 4.377137
69.130 4.570803
69.135 4.86676
69.140 4.842768
69.145 5.369099
69.150 5.897748
69.155 5.931092
69.160 5.959911
69.165 5.841564
69.170 5.783343
69.175 5.684118
69.180 5.569865
69.185 5.227181
69.190 4.993377
69.195 4.817736
69.200 4.835554
69.205 4.54153
69.210 4.613661
69.215 4.288358
69.220 4.481597
69.225 4.487454
69.230 4.424364
69.235 4.626139
69.240 4.796028
69.245 4.793048
69.250 5.074419
69.255 4.975999
69.260 5.108918
69.265 5.321584
69.270 4.976899
69.275 4.94902
69.280 4.790854
69.285 4.741031
69.290 4.712212
69.295 4.394828
69.300 4.279562
69.305 4.441098
69.310 4.810386
69.315 5.034907
69.320 4.937654
69.325 5.089345
69.330 5.370518
69.335 5.447901
69.340 5.562429
69.345 5.24563
69.350 5.097349
69.355 5.065311
69.360 4.918111
69.365 4.861058
69.370 4.746248
69.375 4.716968
69.380 4.768822
69.385 4.845408
69.390 4.942684
69.395 4.975861
69.400 5.060104
69.405 5.057693
69.410 4.959893
69.415 4.577353
69.420 4.757117
69.425 4.80773
69.430 4.738408
69.435 4.765222
69.440 4.553316
69.445 4.574394
69.450 4.780579
69.455 4.639294
69.460 4.527875
69.465 4.410361
69.470 4.204767
69.475 4.399169
69.480 4.591581
69.485 4.588275
69.490 4.64075
69.495 5.075762
69.500 5.465865
69.505 5.645581
69.510 5.61003
69.515 5.210692
69.520 5.437344
69.525 5.392754
69.530 5.136212
69.535 4.744115
69.540 4.61131
69.545 4.520164
69.550 4.625477
69.555 4.614964
69.560 4.406037
69.565 4.591655
69.570 4.890477
69.575 5.05978
69.580 5.354462
69.585 5.459113
69.590 5.640968
69.595 5.741958
69.600 5.780655
69.605 6.154279
69.610 5.863699
69.615 5.756335
69.620 5.601704
69.625 5.492103
69.630 5.316662
69.635 5.155145
69.640 5.14888
69.645 5.214369
69.650 5.24935
69.655 5.118033
69.660 4.735195
69.665 4.554142
69.670 4.33378
69.675 3.875057
69.680 3.965387
69.685 3.860725
69.690 3.841092
69.695 4.025161
69.700 4.31242
69.705 4.595877
69.710 5.128026
69.715 5.107811
69.720 5.077638
69.725 5.469508
69.730 5.5549
69.735 5.357178
69.740 5.198982
69.745 4.878806
69.750 4.96048
69.755 5.011532
69.760 4.651572
69.765 4.244616
69.770 4.24486
69.775 4.151191
69.780 4.052055
69.785 4.092279
69.790 4.121459
69.795 4.530989
69.800 4.997212
69.805 5.18293
69.810 5.248585
69.815 5.223422
69.820 5.093335
69.825 5.036427
69.830 4.910851
69.835 4.801168
69.840 4.653567
69.845 4.788625
69.850 4.992349
69.855 4.813511
69.860 4.784664
69.865 4.460599
69.870 4.463496
69.875 4.242787
69.880 3.971272
69.885 3.846046
69.890 4.045502
69.895 3.969098
69.900 4.153196
69.905 4.375568
69.910 4.549869
69.915 4.33893
69.920 4.180632
69.925 4.034328
69.930 4.121835
69.935 4.105325
69.940 4.399235
69.945 4.707035
69.950 5.232565
69.955 5.404037
69.960 5.550435
69.965 5.525898
69.970 5.677809
69.975 5.389329
69.980 5.411745
69.985 5.241853
69.990 5.395279
69.995 5.466403
70.000 5.597839
70.005 5.543152
70.010 5.678299
70.015 5.478831
70.020 5.332885
70.025 5.100175
70.030 4.904209
70.035 4.689439
70.040 4.430407
70.045 4.144825
70.050 4.19791
70.055 4.68746
70.060 4.786152
70.065 4.890213
70.070 5.20158
70.075 5.391508
70.080 5.52688
70.085 5.474664
70.090 5.227662
70.095 5.684015
70.100 5.908133
70.105 5.592917
70.110 5.443371
70.115 5.263501
70.120 5.056084
70.125 5.289743
70.130 5.021019
70.135 4.91194
70.140 4.730867
70.145 4.51531
70.150 4.550003
70.155 4.946442
70.160 4.604198
70.165 4.522925
70.170 4.649925
70.175 5.202079
70.180 5.447831
70.185 5.620249
70.190 5.466825
70.195 5.440396
70.200 5.428823
70.205 5.251197
70.210 4.768531
70.215 4.585292
70.220 4.347528
70.225 4.355824
70.230 4.32717
70.235 4.083561
70.240 4.185755
70.245 4.359466
70.250 4.255576
70.255 4.295203
70.260 4.167152
70.265 4.395595
70.270 4.398103
70.275 4.238399
70.280 4.245011
70.285 4.425402
70.290 4.326499
70.295 4.529534
70.300 4.780503
70.305 4.981934
70.310 5.151787
70.315 5.299983
70.320 5.322989
70.325 5.301823
70.330 5.105697
70.335 5.010982
70.340 4.703701
70.345 4.453444
70.350 4.411808
70.355 4.455509
70.360 4.333504
70.365 4.270399
70.370 4.24619
70.375 4.690876
70.380 4.870715
70.385 4.800123
70.390 4.760052
70.395 4.888046
70.400 4.880889
70.405 5.11167
70.410 4.774543
70.415 4.782024
70.420 4.798759
70.425 4.801952
70.430 4.810479
70.435 4.731197
70.440 4.581202
70.445 4.691236
70.450 4.70176
70.455 4.886668
70.460 4.667553
70.465 4.625759
70.470 4.706871
70.475 4.558198
70.480 4.376607
70.485 4.082527
70.490 4.168794
70.495 4.414932
70.500 4.097124
70.505 3.930418
70.510 3.83527
70.515 4.175405
70.520 4.521406
70.525 4.206852
70.530 4.37178
70.535 4.585496
70.540 4.574461
70.545 4.815698
70.550 4.676885
70.555 5.028019
70.560 5.279094
70.565 5.244923
70.570 5.125236
70.575 4.979967
70.580 4.844155
70.585 4.624443
70.590 4.715055
70.595 4.689018
70.600 4.563031
70.605 4.749189
70.610 5.115401
70.615 5.405934
70.620 5.594386
70.625 5.530257
70.630 5.72733
70.635 6.113404
70.640 6.145813
70.645 5.72255
70.650 5.487907
70.655 5.339048
70.660 4.992382
70.665 4.840531
70.670 4.681417
70.675 4.728796
70.680 4.912462
70.685 5.106864
70.690 4.877605
70.695 4.484529
70.700 4.372134
70.705 4.415637
70.710 4.582016
70.715 4.655528
70.720 4.605267
70.725 4.704513
70.730 5.003698
70.735 4.964849
70.740 4.836616
70.745 4.741867
70.750 4.578078
70.755 4.785379
70.760 4.857679
70.765 4.843199
70.770 5.15974
70.775 5.20668
70.780 5.180683
70.785 5.121186
70.790 4.903634
70.795 4.974512
70.800 4.831127
70.805 4.497926
70.810 4.505362
70.815 4.622134
70.820 4.800105
70.825 4.807767
70.830 4.855592
70.835 4.809451
70.840 4.906016
70.845 4.946182
70.850 4.679394
70.855 4.554674
70.860 4.740982
70.865 5.076782
70.870 5.016444
70.875 4.845245
70.880 4.741391
70.885 4.730862
70.890 4.62619
70.895 4.397852
70.900 4.150647
70.905 4.65603
70.910 5.003665
70.915 5.380351
70.920 5.627941
70.925 5.671612
70.930 5.607367
70.935 5.361386
70.940 4.878679
70.945 5.001037
70.950 4.803889
70.955 4.940065
70.960 5.084033
70.965 5.003142
70.970 5.069784
70.975 4.910994
70.980 4.547222
70.985 4.563474
70.990 4.312903
70.995 4.585033
71.000 4.894116
71.005 5.338285
71.010 5.624345
71.015 5.666776
71.020 5.75673
71.025 5.633798
71.030 5.302874
71.035 4.784071
71.040 4.454426
71.045 4.420084
71.050 4.117617
71.055 3.915757
71.060 4.206087
71.065 4.069839
71.070 4.560371
71.075 4.492356
71.080 4.500785
71.085 4.691379
71.090 4.790059
71.095 4.772122
71.100 4.994287
71.105 5.183875
71.110 5.287845
71.115 5.290183
71.120 5.410257
71.125 5.465267
71.130 5.420449
71.135 5.542455
71.140 5.073727
71.145 5.05895
71.150 4.968928
71.155 4.822168
71.160 4.728838
71.165 4.652194
71.170 4.606401
71.175 5.017129
71.180 4.936456
71.185 4.782752
71.190 4.593899
71.195 4.53442
71.200 4.480042
71.205 4.313063
71.210 3.693775
71.215 3.824449
71.220 3.994187
71.225 4.151027
71.230 4.108704
71.235 4.180076
71.240 4.261675
71.245 4.361432
71.250 4.308656
71.255 4.293483
71.260 4.291173
71.265 4.662876
71.270 4.913781
71.275 5.105059
71.280 5.410836
71.285 5.509334
71.290 5.637317
71.295 5.553513
71.300 5.100635
71.305 4.793325
71.310 4.906948
71.315 4.638294
71.320 4.749458
71.325 4.403288
71.330 4.223747
71.335 4.220245
71.340 4.161234
71.345 4.1989
71.350 4.177434
71.355 4.066684
71.360 4.121891
71.365 4.56364
71.370 4.914096
71.375 5.136107
71.380 5.035225
71.385 4.989556
71.390 5.02003
71.395 5.219715
71.400 4.895667
71.405 4.702994
71.410 4.7733
71.415 4.778154
71.420 5.041848
71.425 5.082885
71.430 5.084066
71.435 5.329343
71.440 5.437103
71.445 5.439857
71.450 5.469194
71.455 5.44234
71.460 5.329515
71.465 5.245081
71.470 4.968306
71.475 5.035917
71.480 4.911999
71.485 4.987075
71.490 5.062366
71.495 5.156292
71.500 5.305931
71.505 5.407111
71.510 4.910239
71.515 4.898055
71.520 4.910512
71.525 4.566027
71.530 4.49994
71.535 4.690259
71.540 4.788367
71.545 4.744097
71.550 4.62687
71.555 4.671755
71.560 4.871876
71.565 4.673736
71.570 4.426759
71.575 4.617923
71.580 4.983828
71.585 5.086997
71.590 4.956171
71.595 4.757901
71.600 4.91092
71.605 4.792403
71.610 4.59243
71.615 4.499054
71.620 4.390691
71.625 4.613039
71.630 5.121056
71.635 5.202999
71.640 5.131795
71.645 5.17839
71.650 5.242127
71.655 5.78983
71.660 5.562662
71.665 5.482285
71.670 5.469448
71.675 5.283514
71.680 5.226793
71.685 5.061198
71.690 4.506816
71.695 4.472851
71.700 4.72018
71.705 5.086889
71.710 5.12748
71.715 5.28817
71.720 5.453823
71.725 5.340153
71.730 5.234336
71.735 4.750454
71.740 4.381467
71.745 4.248443
71.750 4.225979
71.755 4.07548
71.760 3.963962
71.765 4.09905
71.770 4.234977
71.775 4.482039
71.780 4.940431
71.785 4.914952
71.790 5.336964
71.795 5.742853
71.800 5.697973
71.805 5.74907
71.810 5.657982
71.815 5.402894
71.820 5.497649
71.825 5.225779
71.830 4.981074
71.835 4.808133
71.840 4.73729
71.845 4.622662
71.850 4.540373
71.855 4.239897
71.860 4.231478
71.865 4.150477
71.870 4.303016
71.875 4.24453
71.880 4.132799
71.885 4.090557
71.890 4.278669
71.895 4.274199
71.900 4.638024
71.905 4.866036
71.910 4.866975
71.915 5.016749
71.920 5.062905
71.925 4.847759
71.930 4.820051
71.935 4.540141
71.940 4.254448
71.945 4.135739
71.950 4.246387
71.955 4.209334
71.960 4.240105
71.965 4.411323
71.970 4.239105
71.975 4.218246
71.980 4.527151
71.985 4.319563
71.990 4.402181
71.995 4.760699
72.000 4.674355
72.005 5.151649
72.010 5.144765
72.015 4.985526
72.020 5.089291
72.025 5.235588
72.030 5.169717
72.035 5.162674
72.040 4.879665
72.045 5.022782
72.050 5.084383
72.055 4.69766
72.060 4.352328
72.065 4.265763
72.070 4.076235
72.075 3.927653
72.080 3.674994
72.085 3.743294
72.090 4.011519
72.095 4.111264
72.100 4.143656
72.105 4.346329
72.110 4.372761
72.115 4.156692
72.120 3.941956
72.125 3.950379
72.130 4.204493
72.135 4.093738
72.140 4.283566
72.145 4.628698
72.150 4.846786
72.155 5.26991
72.160 5.070669
72.165 4.832218
72.170 4.648901
72.175 4.463336
72.180 4.370515
72.185 4.090958
72.190 3.802245
72.195 3.854889
72.200 4.199162
72.205 4.530095
72.210 4.212772
72.215 4.265241
72.220 4.727705
72.225 4.639448
72.230 4.563546
72.235 3.997905
72.240 4.278353
72.245 4.542361
72.250 4.458986
72.255 4.461115
72.260 4.680494
72.265 4.840014
72.270 4.973124
72.275 4.799989
72.280 5.191314
72.285 5.144437
72.290 5.149361
72.295 5.008029
72.300 4.903934
72.305 5.011806
72.310 5.103428
72.315 4.915398
72.320 5.158465
72.325 5.051101
72.330 5.113262
72.335 5.308632
72.340 5.105875
72.345 4.725534
72.350 4.661905
72.355 4.751115
72.360 4.613958
72.365 4.443658
72.370 4.597553
72.375 4.82559
72.380 4.937802
72.385 5.039903
72.390 5.001734
72.395 4.970783
72.400 5.008479
72.405 4.787066
72.410 4.520552
72.415 4.465316
72.420 3.971219
72.425 3.996409
72.430 4.146902
72.435 4.111604
72.440 4.184157
72.445 4.177783
72.450 4.503794
72.455 4.627098
72.460 4.461548
72.465 4.380787
72.470 4.544374
72.475 4.502974
72.480 4.552466
72.485 4.069103
72.490 4.298579
72.495 4.4826
72.500 4.639513
72.505 4.473893
72.510 4.583528
72.515 4.500538
72.520 4.589891
72.525 4.24348
72.530 4.19458
72.535 4.048002
72.540 4.121729
72.545 4.29161
72.550 4.341452
72.555 4.753595
72.560 4.939973
72.565 4.969814
72.570 5.209797
72.575 5.31046
72.580 5.284423
72.585 5.451334
72.590 5.318698
72.595 5.437057
72.600 5.380559
72.605 5.217216
72.610 4.884824
72.615 4.587203
72.620 4.31309
72.625 4.07866
72.630 4.005693
72.635 4.11175
72.640 4.2309
72.645 4.594019
72.650 4.988798
72.655 5.253467
72.660 5.231163
72.665 5.253034
72.670 5.107534
72.675 5.110408
72.680 4.959042
72.685 4.783023
72.690 4.861239
72.695 5.056733
72.700 5.211734
72.705 5.370335
72.710 5.281156
72.715 5.267051
72.720 5.480449
72.725 5.083282
72.730 5.04862
72.735 4.782471
72.740 4.602808
72.745 4.276597
72.750 4.221155
72.755 4.200578
72.760 4.049012
72.765 4.270127
72.770 4.43616
72.775 4.62812
72.780 4.727163
72.785 4.883229
72.790 5.132517
72.795 5.159318
72.800 5.080736
72.805 5.14292
72.810 5.231442
72.815 5.447186
72.820 5.555096
72.825 5.611759
72.830 5.78148
72.835 5.713524
72.840 5.537979
72.845 5.248243
72.850 4.863829
72.855 4.378166
72.860 4.164225
72.865 4.150149
72.870 4.248431
72.875 4.376994
72.880 4.718825
72.885 5.14122
72.890 5.117205
72.895 4.963337
72.900 4.900381
72.905 4.966844
72.910 5.372922
72.915 5.348515
72.920 5.135781
72.925 5.053361
72.930 4.957639
72.935 4.802581
72.940 4.964892
72.945 4.740086
72.950 4.635013
72.955 4.783644
72.960 4.946541
72.965 5.14236
72.970 5.228679
72.975 4.8248
72.980 4.596422
72.985 4.480928
72.990 4.969604
72.995 5.265215
73.000 5.37444
73.005 5.533601
73.010 5.88875
73.015 6.184467
73.020 5.948357
73.025 5.497103
73.030 5.38102
73.035 5.255515
73.040 5.143323
73.045 4.976056
73.050 5.234486
73.055 5.554145
73.060 5.945233
73.065 6.055739
73.070 6.175111
73.075 6.350241
73.080 6.058958
73.085 5.914608
73.090 5.528478
73.095 4.95558
73.100 4.932381
73.105 4.745265
73.110 4.553174
73.115 4.708298
73.120 4.694228
73.125 4.846763
73.130 5.24204
73.135 5.230713
73.140 5.277442
73.145 5.140456
73.150 4.928405
73.155 5.153074
73.160 4.992667
73.165 4.97766
73.170 4.751691
73.175 4.642401
73.180 4.639035
73.185 4.715692
73.190 4.46591
73.195 4.777646
73.200 4.727291
73.205 4.738471
73.210 4.890203
73.215 4.990061
73.220 4.9647
73.225 4.896354
73.230 4.814216
73.235 4.945549
73.240 5.148835
73.245 4.9252
73.250 5.064056
73.255 5.303479
73.260 5.266541
73.265 5.141249
73.270 4.789136
73.275 4.626506
73.280 4.630501
73.285 4.395974
73.290 4.131379
73.295 4.034253
73.300 3.901638
73.305 3.912779
73.310 3.996504
73.315 4.037237
73.320 4.171504
73.325 4.1908
73.330 4.652127
73.335 4.706626
73.340 4.585042
73.345 4.613276
73.350 4.632116
73.355 4.585069
73.360 4.553139
73.365 4.298047
73.370 4.425061
73.375 4.522791
73.380 4.414709
73.385 4.374927
73.390 4.447708
73.395 4.667426
73.400 4.771079
73.405 4.852913
73.410 4.864766
73.415 4.873523
73.420 5.1127
73.425 4.800584
73.430 4.665203
73.435 4.629618
73.440 4.740095
73.445 4.89176
73.450 5.116778
73.455 5.136049
73.460 5.087739
73.465 4.706873
73.470 4.487837
73.475 4.378511
73.480 4.411088
73.485 3.945763
73.490 3.853045
73.495 3.962332
73.500 4.200861
73.505 4.400482
73.510 4.258494
73.515 4.312538
73.520 4.385722
73.525 4.466524
73.530 4.402385
73.535 4.335812
73.540 4.425319
73.545 4.468925
73.550 4.157903
73.555 4.370124
73.560 4.399036
73.565 4.452713
73.570 4.390274
73.575 4.142033
73.580 4.454011
73.585 4.46773
73.590 4.187879
73.595 4.612007
73.600 4.512122
73.605 4.528624
73.610 4.821471
73.615 4.57498
73.620 4.46649
73.625 4.352883
73.630 4.550978
73.635 4.934572
73.640 4.790732
73.645 4.508904
73.650 4.746188
73.655 4.959661
73.660 5.047574
73.665 4.799737
73.670 4.578998
73.675 4.810759
73.680 4.801961
73.685 4.735562
73.690 4.986062
73.695 4.821627
73.700 4.676801
73.705 4.593357
73.710 4.490697
73.715 4.766418
73.720 4.549251
73.725 4.319556
73.730 4.491256
73.735 4.598957
73.740 4.976272
73.745 4.83538
73.750 4.772373
73.755 4.883644
73.760 5.043384
73.765 4.94394
73.770 4.668261
73.775 4.599411
73.780 4.665546
73.785 4.649693
73.790 4.561864
73.795 4.273449
73.800 4.68603
73.805 4.912831
73.810 5.057167
73.815 4.994892
73.820 4.687271
73.825 4.543031
73.830 4.694014
73.835 4.707064
73.840 4.705046
73.845 4.732665
73.850 4.976721
73.855 5.2075
73.860 5.453037
73.865 5.434042
73.870 5.297965
73.875 5.427949
73.880 5.364887
73.885 5.279805
73.890 5.22923
73.895 5.206399
73.900 5.376876
73.905 5.264753
73.910 5.04573
73.915 4.872309
73.920 4.798512
73.925 4.857365
73.930 4.866386
73.935 4.603687
73.940 4.705456
73.945 4.748337
73.950 4.893604
73.955 4.982289
73.960 4.949833
73.965 4.725957
73.970 4.670723
73.975 4.536015
73.980 4.519077
73.985 4.468838
73.990 4.400484
73.995 4.465481
74.000 4.297796
74.005 4.367217
74.010 4.273976
74.015 4.22356
74.020 4.468351
74.025 4.419602
74.030 4.568992
74.035 4.544754
74.040 4.548544
74.045 4.747943
74.050 4.548442
74.055 4.330296
74.060 4.22492
74.065 4.311594
74.070 4.601586
74.075 4.621683
74.080 4.68443
74.085 4.741496
74.090 4.977224
74.095 4.877872
74.100 4.671087
74.105 4.546329
74.110 4.40259
74.115 4.439119
74.120 4.592745
74.125 4.459982
74.130 4.520126
74.135 4.894845
74.140 4.966689
74.145 5.016333
74.150 4.78864
74.155 4.680492
74.160 4.714937
74.165 4.9672
74.170 4.774786
74.175 4.70411
74.180 4.600256
74.185 4.711991
74.190 4.696564
74.195 4.559287
74.200 4.130709
74.205 4.418701
74.210 4.458362
74.215 4.216226
74.220 4.277914
74.225 4.344599
74.230 4.286146
74.235 4.246095
74.240 3.959877
74.245 4.127473
74.250 4.669063
74.255 4.399747
74.260 4.345099
74.265 4.614058
74.270 4.514375
74.275 4.337968
74.280 4.276381
74.285 3.874
74.290 4.080752
74.295 4.147124
74.300 4.386016
74.305 4.267307
74.310 4.186044
74.315 4.245618
74.320 4.399131
74.325 4.591112
74.330 4.425732
74.335 4.30791
74.340 4.456308
74.345 4.681086
74.350 4.604925
74.355 4.391822
74.360 4.24779
74.365 4.176243
74.370 4.077994
74.375 4.019183
74.380 3.800614
74.385 4.452271
74.390 4.623084
74.395 4.542367
74.400 4.796092
74.405 4.861761
74.410 4.822268
74.415 4.801907
74.420 4.343065
74.425 4.325327
74.430 4.437859
74.435 4.197448
74.440 4.375118
74.445 4.495473
74.450 4.552233
74.455 4.425652
74.460 4.71403
74.465 4.957243
74.470 5.097709
74.475 5.006264
74.480 5.103688
74.485 4.944807
74.490 4.805291
74.495 4.285518
74.500 4.156168
74.505 4.233264
74.510 4.129307
74.515 3.917253
74.520 4.194359
74.525 4.052482
74.530 4.105278
74.535 3.936585
74.540 3.617936
74.545 3.672645
74.550 3.705401
74.555 3.729957
74.560 3.975467
74.565 4.168166
74.570 4.557529
74.575 4.731384
74.580 4.62852
74.585 4.498296
74.590 4.440688
74.595 4.402342
74.600 3.993207
74.605 3.848909
74.610 4.073551
74.615 4.127323
74.620 4.401843
74.625 4.316935
74.630 4.146574
74.635 4.408329
74.640 4.336405
74.645 4.199875
74.650 4.188033
74.655 3.909341
74.660 3.953417
74.665 4.01177
74.670 3.90425
74.675 4.154033
74.680 4.389941
74.685 4.316592
74.690 4.132621
74.695 4.264631
74.700 4.075768
74.705 4.11697
74.710 4.1314
74.715 3.945689
74.720 3.927645
74.725 3.979317
74.730 4.203982
74.735 4.269577
74.740 4.252809
74.745 4.067154
74.750 4.258324
74.755 4.297278
74.760 4.091733
74.765 4.060692
74.770 4.254202
74.775 4.067643
74.780 4.176865
74.785 4.101434
74.790 4.387959
74.795 4.319039
74.800 4.28361
74.805 3.997122
74.810 4.048145
74.815 4.209351
74.820 4.122203
74.825 4.389493
74.830 4.25531
74.835 4.229629
74.840 4.221995
74.845 4.127872
74.850 3.99469
74.855 3.989142
74.860 3.808846
74.865 4.082333
74.870 4.084444
74.875 4.083238
74.880 4.304671
74.885 4.619064
74.890 5.038939
74.895 5.175769
74.900 5.316479
74.905 5.435171
74.910 5.298275
74.915 5.104577
74.920 5.09902
74.925 4.752515
74.930 4.763903
74.935 4.635032
74.940 4.704396
74.945 4.848591
74.950 4.957727
74.955 4.781809
74.960 4.865795
74.965 4.682298
74.970 4.630293
74.975 4.566921
74.980 4.381876
74.985 4.334949
74.990 4.387099
74.995 4.113159
75.000 4.306081
