!@!!GADDS PLOTSO FILE: Chi integration type
!@!!Title/SampleName: map-b1
!@!!Comment: ?
!@!!User: Bruker Instrument Administrator
!@!!Site: University of Illinois Chicago
!@!!Frame: map-b1_01_000.gfrm
!@!!Wavelengths    1.54184   1.54056   1.54439
!@!!Frame angles: 2Theta: 65.000 Omega: 50.000 Phi: 0.000 Chi: 90.000
!@!!Integration range: 2Theta: 55.000 to 75.000  Gamma: -105.000 to -75.000
!@!!Integration method: bin normalized
!@!N
!@!SS
!@!M
!@!L 0.0 0.0 0.0 0.0
!@!XDegrees
!@!YCounts
55.000 5.250658
55.005 5.575015
55.010 5.529314
55.015 5.42668
55.020 5.498111
55.025 5.362799
55.030 4.965279
55.035 4.40751
55.040 4.224287
55.045 4.334468
55.050 4.556638
55.055 4.460506
55.060 4.657829
55.065 5.081853
55.070 5.247604
55.075 5.42033
55.080 5.084905
55.085 4.97857
55.090 5.05952
55.095 4.757634
55.100 4.681114
55.105 4.766024
55.110 4.636637
55.115 4.690751
55.120 4.45518
55.125 4.464895
55.130 4.34065
55.135 4.182194
55.140 4.065419
55.145 4.096886
55.150 4.289202
55.155 4.651369
55.160 4.783431
55.165 5.030161
55.170 5.186148
55.175 5.303962
55.180 5.287834
55.185 5.350977
55.190 5.032781
55.195 4.765118
55.200 4.692312
55.205 4.403901
55.210 4.550742
55.215 4.339444
55.220 4.377552
55.225 4.640491
55.230 4.805169
55.235 4.998557
55.240 5.18728
55.245 5.311534
55.250 5.546498
55.255 5.445125
55.260 5.324389
55.265 5.128391
55.270 4.884444
55.275 4.70625
55.280 4.371866
55.285 4.076168
55.290 3.98739
55.295 4.2397
55.300 4.506054
55.305 4.500754
55.310 4.36805
55.315 4.511218
55.320 4.532016
55.325 4.437716
55.330 4.402768
55.335 4.39237
55.340 4.814274
55.345 5.148928
55.350 5.23713
55.355 5.675385
55.360 5.633428
55.365 5.341067
55.370 5.577299
55.375 5.287752
55.380 5.052443
55.385 4.881264
55.390 4.425471
55.395 4.515025
55.400 4.545604
55.405 4.211952
55.410 4.090417
55.415 4.193972
55.420 4.27902
55.425 4.353581
55.430 4.485335
55.435 5.070157
55.440 5.148683
55.445 5.057406
55.450 5.073096
55.455 5.226685
55.460 5.32335
55.465 5.010395
55.470 4.800266
55.475 5.14279
55.480 5.362332
55.485 5.253747
55.490 5.076209
55.495 5.093303
55.500 4.996249
55.505 4.518262
55.510 4.550612
55.515 4.755158
55.520 5.091223
55.525 4.910424
55.530 5.180835
55.535 5.715979
55.540 5.945948
55.545 5.529538
55.550 5.105873
55.555 4.561481
55.560 4.693237
55.565 4.368317
55.570 3.960741
55.575 4.148922
55.580 4.297772
55.585 4.492002
55.590 4.915034
55.595 4.846134
55.600 4.978387
55.605 5.015131
55.610 4.960566
55.615 5.261964
55.620 5.168939
55.625 5.241985
55.630 5.215075
55.635 5.097459
55.640 5.224747
55.645 4.95848
55.650 5.022768
55.655 5.34658
55.660 5.102228
55.665 5.17894
55.670 5.29248
55.675 5.489525
55.680 5.550991
55.685 5.236372
55.690 4.848111
55.695 4.802938
55.700 4.830081
55.705 4.585358
55.710 4.538407
55.715 4.661511
55.720 4.846545
55.725 5.142921
55.730 5.049732
55.735 5.247227
55.740 5.348713
55.745 5.20251
55.750 5.326853
55.755 5.409558
55.760 5.404366
55.765 5.296315
55.770 5.20586
55.775 5.197126
55.780 5.588913
55.785 5.29281
55.790 5.070413
55.795 4.871004
55.800 4.94478
55.805 5.063306
55.810 4.711039
55.815 4.222478
55.820 4.240346
55.825 4.550275
55.830 4.686955
55.835 4.426951
55.840 4.27785
55.845 4.395536
55.850 4.543143
55.855 4.809798
55.860 4.862698
55.865 4.844445
55.870 4.95529
55.875 5.185479
55.880 5.289388
55.885 5.334471
55.890 5.003425
55.895 5.006245
55.900 5.052906
55.905 5.235577
55.910 5.117027
55.915 4.849834
55.920 4.869019
55.925 5.012253
55.930 5.045977
55.935 4.817546
55.940 4.889626
55.945 4.962235
55.950 5.149376
55.955 5.098857
55.960 5.013025
55.965 4.993367
55.970 5.002809
55.975 4.974793
55.980 4.962192
55.985 4.764717
55.990 4.776668
55.995 4.760704
56.000 4.832509
56.005 4.930282
56.010 4.909978
56.015 5.225352
56.020 5.292098
56.025 5.347762
56.030 5.544654
56.035 5.581573
56.040 5.256302
56.045 4.934067
56.050 4.966866
56.055 5.12386
56.060 5.006453
56.065 4.772132
56.070 4.769237
56.075 5.258607
56.080 5.49489
56.085 5.276464
56.090 5.228949
56.095 5.210738
56.100 5.366686
56.105 4.987822
56.110 4.461251
56.115 4.268161
56.120 4.160116
56.125 4.243342
56.130 4.264919
56.135 4.331568
56.140 4.748616
56.145 4.733308
56.150 4.829357
56.155 4.8388
56.160 4.764446
56.165 4.353453
56.170 4.165705
56.175 4.314108
56.180 4.544446
56.185 4.333229
56.190 4.468614
56.195 4.744136
56.200 4.768943
56.205 4.611939
56.210 4.349205
56.215 4.23973
56.220 4.283458
56.225 4.12608
56.230 4.205943
56.235 4.535795
56.240 4.568274
56.245 4.653778
56.250 4.886279
56.255 5.010557
56.260 4.966837
56.265 5.126973
56.270 5.31959
56.275 5.67228
56.280 5.957153
56.285 6.062531
56.290 6.027785
56.295 6.258634
56.300 6.123368
56.305 6.242309
56.310 6.088367
56.315 5.611107
56.320 5.51337
56.325 5.739824
56.330 6.010262
56.335 6.143395
56.340 5.531111
56.345 5.452464
56.350 5.624422
56.355 5.541692
56.360 5.332841
56.365 4.708426
56.370 4.675101
56.375 4.808319
56.380 5.093633
56.385 5.047787
56.390 4.768633
56.395 4.89953
56.400 4.793625
56.405 4.522027
56.410 4.577454
56.415 4.294764
56.420 4.278478
56.425 4.188883
56.430 3.88544
56.435 3.851178
56.440 4.228258
56.445 4.431591
56.450 4.896353
56.455 4.998854
56.460 5.071809
56.465 5.398002
56.470 5.230785
56.475 5.210936
56.480 4.928519
56.485 4.839357
56.490 4.812702
56.495 4.724083
56.500 4.604971
56.505 4.869933
56.510 4.906923
56.515 4.974655
56.520 4.807579
56.525 4.843134
56.530 5.01412
56.535 5.054138
56.540 5.141906
56.545 5.09658
56.550 5.144215
56.555 5.046424
56.560 5.044243
56.565 4.870491
56.570 4.717057
56.575 4.665209
56.580 4.585132
56.585 4.54855
56.590 4.672293
56.595 4.420302
56.600 4.627759
56.605 4.763385
56.610 4.754901
56.615 4.604858
56.620 4.820997
56.625 4.878574
56.630 4.957449
56.635 4.67834
56.640 4.550694
56.645 4.550006
56.650 4.646939
56.655 4.413092
56.660 4.504382
56.665 4.942276
56.670 4.82507
56.675 4.715887
56.680 4.697062
56.685 4.575384
56.690 4.689943
56.695 4.64992
56.700 4.495171
56.705 4.894465
56.710 5.058303
56.715 4.999514
56.720 4.876262
56.725 4.910724
56.730 4.819096
56.735 5.023156
56.740 4.917922
56.745 4.788881
56.750 5.032722
56.755 5.102409
56.760 5.232486
56.765 5.248524
56.770 4.958218
56.775 4.878625
56.780 4.971163
56.785 4.885295
56.790 4.852396
56.795 4.934144
56.800 5.013157
56.805 5.439543
56.810 5.850811
56.815 5.911802
56.820 5.921436
56.825 5.870861
56.830 5.643618
56.835 5.515291
56.840 5.454479
56.845 5.269869
56.850 5.335363
56.855 5.156057
56.860 4.960588
56.865 4.973912
56.870 4.891035
56.875 4.809605
56.880 4.593694
56.885 4.65907
56.890 4.732585
56.895 4.73487
56.900 4.53893
56.905 4.548738
56.910 4.528652
56.915 4.763463
56.920 4.300784
56.925 4.398355
56.930 4.760281
56.935 5.068344
56.940 5.233197
56.945 5.252913
56.950 5.228019
56.955 5.440359
56.960 5.090364
56.965 5.030391
56.970 5.083524
56.975 5.016403
56.980 4.999288
56.985 5.198515
56.990 5.468277
56.995 5.682613
57.000 5.690375
57.005 5.273705
57.010 5.102259
57.015 5.051435
57.020 5.16638
57.025 5.017405
57.030 4.653522
57.035 4.565591
57.040 4.818881
57.045 4.891386
57.050 4.761806
57.055 4.663795
57.060 4.91195
57.065 5.019258
57.070 5.151156
57.075 5.101727
57.080 4.96032
57.085 4.910428
57.090 4.85922
57.095 5.30319
57.100 5.338896
57.105 5.471152
57.110 5.316411
57.115 5.492815
57.120 5.483684
57.125 5.732092
57.130 5.629351
57.135 5.74769
57.140 5.830313
57.145 5.71438
57.150 5.704551
57.155 5.817073
57.160 5.110594
57.165 4.448847
57.170 4.14995
57.175 3.836959
57.180 4.043506
57.185 4.097914
57.190 4.180511
57.195 4.528746
57.200 5.056178
57.205 5.136211
57.210 5.63267
57.215 5.709633
57.220 5.616545
57.225 5.783166
57.230 5.898428
57.235 5.719519
57.240 5.795984
57.245 5.35294
57.250 5.093449
57.255 5.002328
57.260 4.852304
57.265 4.998171
57.270 5.217559
57.275 5.304018
57.280 5.959343
57.285 6.494047
57.290 6.451582
57.295 6.968305
57.300 6.82388
57.305 6.85341
57.310 6.782032
57.315 6.245334
57.320 5.883402
57.325 5.724541
57.330 5.1489
57.335 5.493697
57.340 5.218562
57.345 5.204482
57.350 5.025289
57.355 4.96721
57.360 5.03587
57.365 4.744269
57.370 4.83045
57.375 5.128088
57.380 5.412081
57.385 5.61436
57.390 5.990641
57.395 6.138003
57.400 6.154154
57.405 5.881669
57.410 5.704514
57.415 5.663191
57.420 5.675539
57.425 5.16715
57.430 5.09709
57.435 5.224704
57.440 4.887888
57.445 4.736952
57.450 4.620453
57.455 4.555328
57.460 4.977229
57.465 4.933821
57.470 4.712365
57.475 4.90436
57.480 4.86677
57.485 4.830925
57.490 5.154127
57.495 4.806116
57.500 4.566826
57.505 4.486116
57.510 4.294611
57.515 4.259435
57.520 4.336496
57.525 4.133443
57.530 4.241016
57.535 4.480654
57.540 4.618381
57.545 4.694127
57.550 4.951964
57.555 5.074131
57.560 5.298321
57.565 5.321713
57.570 5.376763
57.575 5.532023
57.580 5.538711
57.585 5.677491
57.590 5.301969
57.595 5.091204
57.600 5.376389
57.605 5.432977
57.610 5.271286
57.615 4.895329
57.620 4.590539
57.625 4.534977
57.630 4.725773
57.635 4.747623
57.640 4.520518
57.645 4.589182
57.650 4.736321
57.655 4.848628
57.660 5.098974
57.665 4.983413
57.670 4.919413
57.675 5.107038
57.680 5.335939
57.685 5.550557
57.690 5.555755
57.695 5.412227
57.700 5.31193
57.705 5.185184
57.710 5.43278
57.715 5.29053
57.720 5.104177
57.725 5.285384
57.730 5.24171
57.735 5.247823
57.740 5.365453
57.745 5.116725
57.750 5.226483
57.755 5.293608
57.760 5.124593
57.765 5.342076
57.770 5.716864
57.775 5.731025
57.780 5.770828
57.785 5.602994
57.790 5.834078
57.795 6.092271
57.800 6.178712
57.805 6.390405
57.810 6.368732
57.815 6.559028
57.820 6.667719
57.825 6.586451
57.830 6.258376
57.835 5.983184
57.840 6.195616
57.845 6.456982
57.850 6.487134
57.855 6.815815
57.860 6.930612
57.865 7.014793
57.870 7.138339
57.875 6.780964
57.880 6.852365
57.885 6.775981
57.890 6.517911
57.895 6.54995
57.900 6.531713
57.905 6.751551
57.910 6.980236
57.915 7.13838
57.920 7.625834
57.925 8.005539
57.930 8.237568
57.935 8.651191
57.940 8.601348
57.945 9.029997
57.950 8.734234
57.955 8.295538
57.960 8.007607
57.965 8.065545
57.970 8.270602
57.975 8.059314
57.980 7.882809
57.985 8.602711
57.990 8.79287
57.995 8.74388
58.000 8.511438
58.005 8.166305
58.010 8.674677
58.015 8.832566
58.020 8.74101
58.025 9.144753
58.030 8.978236
58.035 9.020617
58.040 9.065212
58.045 9.471783
58.050 9.641292
58.055 9.768716
58.060 10.059392
58.065 10.917569
58.070 11.670384
58.075 12.091052
58.080 11.935899
58.085 12.497965
58.090 13.050003
58.095 13.805357
58.100 13.739346
58.105 13.505626
58.110 13.696219
58.115 14.02583
58.120 13.860632
58.125 13.815145
58.130 13.410086
58.135 13.961793
58.140 14.283888
58.145 14.459791
58.150 14.406201
58.155 14.138419
58.160 13.998308
58.165 13.925261
58.170 13.6547
58.175 13.555887
58.180 13.962057
58.185 13.883492
58.190 14.033892
58.195 14.516052
58.200 14.625977
58.205 14.795192
58.210 14.74896
58.215 14.662332
58.220 15.252721
58.225 15.306758
58.230 15.220275
58.235 15.344506
58.240 15.503135
58.245 15.528855
58.250 15.357581
58.255 15.362359
58.260 15.392667
58.265 14.782135
58.270 14.385818
58.275 14.217109
58.280 14.592189
58.285 14.649313
58.290 14.56895
58.295 14.442765
58.300 14.531508
58.305 14.234199
58.310 14.163246
58.315 13.655032
58.320 13.669498
58.325 13.487634
58.330 13.173273
58.335 13.514405
58.340 13.665764
58.345 13.176162
58.350 12.750832
58.355 12.238474
58.360 11.56857
58.365 11.788739
58.370 11.722789
58.375 10.934294
58.380 10.591347
58.385 10.342402
58.390 10.119018
58.395 10.090261
58.400 9.501663
58.405 9.458264
58.410 9.61342
58.415 9.817684
58.420 9.670559
58.425 9.786241
58.430 9.975514
58.435 9.520461
58.440 9.213254
58.445 9.003181
58.450 8.742434
58.455 8.38944
58.460 8.092755
58.465 8.140411
58.470 8.228989
58.475 8.197182
58.480 8.385753
58.485 8.436978
58.490 8.724251
58.495 8.536898
58.500 8.337179
58.505 8.30224
58.510 8.320393
58.515 8.488166
58.520 8.291344
58.525 8.002363
58.530 7.474615
58.535 7.040498
58.540 7.174695
58.545 6.892699
58.550 6.49655
58.555 6.189681
58.560 6.06645
58.565 6.406218
58.570 6.584593
58.575 6.292704
58.580 6.082493
58.585 5.848505
58.590 6.113297
58.595 6.303339
58.600 5.928217
58.605 5.840664
58.610 5.911554
58.615 6.147223
58.620 6.387385
58.625 6.096449
58.630 5.425491
58.635 5.511009
58.640 5.517122
58.645 5.389588
58.650 5.175925
58.655 5.141475
58.660 5.425171
58.665 5.914345
58.670 6.058592
58.675 6.142089
58.680 6.456373
58.685 6.551897
58.690 6.819378
58.695 6.71715
58.700 6.419616
58.705 6.397341
58.710 5.936228
58.715 5.500688
58.720 5.439268
58.725 5.20331
58.730 4.970115
58.735 4.86927
58.740 4.950394
58.745 5.538907
58.750 5.947191
58.755 6.064015
58.760 5.859392
58.765 5.897328
58.770 5.939383
58.775 5.945448
58.780 5.663521
58.785 5.546092
58.790 5.65489
58.795 5.587157
58.800 5.734685
58.805 5.809124
58.810 5.611189
58.815 5.582217
58.820 5.622256
58.825 5.611619
58.830 5.649643
58.835 5.797386
58.840 5.621806
58.845 5.339028
58.850 5.374024
58.855 5.107602
58.860 5.258454
58.865 5.441706
58.870 5.289399
58.875 5.462925
58.880 5.679836
58.885 5.537605
58.890 5.444602
58.895 5.446303
58.900 5.495705
58.905 5.149808
58.910 5.32635
58.915 5.61486
58.920 6.108159
58.925 6.293796
58.930 6.03834
58.935 5.957523
58.940 6.229965
58.945 5.849677
58.950 5.330564
58.955 5.061182
58.960 4.867825
58.965 4.76681
58.970 4.731784
58.975 4.714749
58.980 5.128562
58.985 5.210588
58.990 4.914675
58.995 5.180515
59.000 5.311107
59.005 5.198348
59.010 5.052997
59.015 4.835703
59.020 5.018432
59.025 5.201068
59.030 5.142787
59.035 5.163274
59.040 5.114871
59.045 5.035665
59.050 5.126307
59.055 5.124722
59.060 5.360637
59.065 5.176372
59.070 5.16007
59.075 5.437516
59.080 5.596246
59.085 5.507094
59.090 5.165563
59.095 5.309626
59.100 5.721245
59.105 5.838081
59.110 5.839239
59.115 5.79867
59.120 6.079509
59.125 5.919629
59.130 5.432559
59.135 5.38709
59.140 5.097535
59.145 5.031972
59.150 5.381655
59.155 5.552053
59.160 5.666026
59.165 5.662739
59.170 5.472825
59.175 5.656148
59.180 5.603922
59.185 4.911147
59.190 4.580839
59.195 4.537981
59.200 4.662742
59.205 4.625357
59.210 4.401493
59.215 3.995317
59.220 4.21741
59.225 4.355192
59.230 4.335774
59.235 4.290405
59.240 4.285882
59.245 4.830395
59.250 5.223496
59.255 5.424517
59.260 5.437096
59.265 5.553511
59.270 5.415178
59.275 5.31364
59.280 5.049819
59.285 5.339119
59.290 5.479351
59.295 5.431235
59.300 5.550039
59.305 5.747175
59.310 5.902953
59.315 6.026711
59.320 5.656138
59.325 5.663072
59.330 5.799263
59.335 5.848292
59.340 5.884071
59.345 5.940339
59.350 5.718127
59.355 5.692849
59.360 5.633173
59.365 5.626607
59.370 5.485645
59.375 5.552861
59.380 5.654515
59.385 5.58037
59.390 5.64345
59.395 5.431929
59.400 5.366035
59.405 5.194328
59.410 4.960312
59.415 4.770923
59.420 4.883348
59.425 4.756632
59.430 4.945489
59.435 4.950909
59.440 5.157969
59.445 5.274583
59.450 5.359116
59.455 5.604638
59.460 5.638487
59.465 5.57575
59.470 5.548674
59.475 5.525482
59.480 5.556392
59.485 5.802611
59.490 5.456792
59.495 5.227947
59.500 5.003597
59.505 4.625058
59.510 4.518769
59.515 4.260458
59.520 3.971119
59.525 4.201045
59.530 4.388317
59.535 4.549532
59.540 4.7982
59.545 4.69851
59.550 4.772015
59.555 4.743863
59.560 4.89064
59.565 4.946327
59.570 4.995549
59.575 5.048978
59.580 5.104983
59.585 5.337681
59.590 5.052468
59.595 4.949289
59.600 4.861863
59.605 4.842824
59.610 4.699332
59.615 4.752316
59.620 4.893439
59.625 5.207463
59.630 4.980352
59.635 4.924691
59.640 5.088034
59.645 5.384551
59.650 5.122661
59.655 5.033642
59.660 5.098845
59.665 5.486222
59.670 5.597147
59.675 5.285597
59.680 5.12542
59.685 5.097648
59.690 5.212717
59.695 5.224409
59.700 5.06286
59.705 5.043622
59.710 5.222666
59.715 5.541506
59.720 5.838205
59.725 5.60539
59.730 5.652043
59.735 5.477946
59.740 5.545577
59.745 5.563406
59.750 5.303607
59.755 5.329878
59.760 5.578619
59.765 5.466851
59.770 5.529393
59.775 5.430633
59.780 5.2065
59.785 5.157413
59.790 5.127808
59.795 4.735946
59.800 4.471085
59.805 4.548951
59.810 4.620702
59.815 4.505044
59.820 4.402617
59.825 4.216345
59.830 4.323705
59.835 4.486794
59.840 4.586563
59.845 4.59361
59.850 5.013287
59.855 5.008952
59.860 5.062369
59.865 5.460623
59.870 5.479286
59.875 5.363645
59.880 5.486535
59.885 5.563966
59.890 5.750085
59.895 5.656361
59.900 5.618539
59.905 5.403504
59.910 5.508859
59.915 5.567642
59.920 5.378716
59.925 5.473742
59.930 5.54833
59.935 5.667142
59.940 5.812111
59.945 5.700465
59.950 5.63968
59.955 5.702927
59.960 5.498251
59.965 5.451705
59.970 5.277859
59.975 5.195757
59.980 5.28467
59.985 5.259964
59.990 5.211071
59.995 5.292117
60.000 5.264495
60.005 5.294816
60.010 5.486439
60.015 5.354524
60.020 5.365356
60.025 5.40501
60.030 5.579669
60.035 5.627192
60.040 5.743281
60.045 5.610754
60.050 5.632293
60.055 5.411942
60.060 5.271023
60.065 5.26108
60.070 5.173978
60.075 4.920149
60.080 4.972079
60.085 4.942924
60.090 4.991262
60.095 4.731933
60.100 4.629625
60.105 4.836049
60.110 5.227029
60.115 4.942738
60.120 4.894024
60.125 4.902399
60.130 5.093403
60.135 4.967877
60.140 5.073066
60.145 5.00574
60.150 5.211591
60.155 5.212088
60.160 5.685864
60.165 5.68514
60.170 5.721213
60.175 5.524323
60.180 5.489558
60.185 5.331627
60.190 5.303894
60.195 4.993382
60.200 4.865484
60.205 4.960257
60.210 5.301505
60.215 5.475483
60.220 5.847616
60.225 6.01127
60.230 6.083311
60.235 6.410226
60.240 6.45362
60.245 6.144375
60.250 6.155746
60.255 6.079946
60.260 5.955054
60.265 6.01037
60.270 5.847198
60.275 5.630719
60.280 5.515602
60.285 5.250909
60.290 5.015419
60.295 5.160028
60.300 5.245811
60.305 5.358366
60.310 5.499382
60.315 5.409102
60.320 5.595072
60.325 6.006927
60.330 5.787532
60.335 5.574116
60.340 5.397745
60.345 5.370407
60.350 5.267374
60.355 5.351092
60.360 5.411335
60.365 5.669792
60.370 5.937922
60.375 5.988911
60.380 5.87909
60.385 5.841923
60.390 5.354417
60.395 5.003085
60.400 4.459774
60.405 4.115627
60.410 3.990985
60.415 4.094533
60.420 4.450686
60.425 4.951238
60.430 5.138792
60.435 5.54945
60.440 5.598455
60.445 5.47518
60.450 5.606364
60.455 5.34778
60.460 5.147159
60.465 5.234368
60.470 5.119736
60.475 5.507661
60.480 5.736205
60.485 5.628379
60.490 6.012426
60.495 6.27215
60.500 6.004163
60.505 6.024821
60.510 5.827192
60.515 5.548736
60.520 5.201262
60.525 4.633135
60.530 4.269583
60.535 4.279859
60.540 4.288057
60.545 4.38739
60.550 4.597778
60.555 4.948469
60.560 5.246101
60.565 5.486663
60.570 5.758706
60.575 5.936107
60.580 5.831565
60.585 5.946415
60.590 5.883601
60.595 5.771009
60.600 5.602564
60.605 5.585835
60.610 5.305486
60.615 5.159756
60.620 5.239464
60.625 5.35763
60.630 5.852781
60.635 5.954235
60.640 6.030794
60.645 6.253453
60.650 6.388947
60.655 6.144704
60.660 6.088437
60.665 5.479182
60.670 5.395657
60.675 4.995017
60.680 4.872919
60.685 4.80747
60.690 4.975093
60.695 4.866967
60.700 4.937661
60.705 4.942043
60.710 5.0434
60.715 5.337144
60.720 5.208727
60.725 5.169024
60.730 5.143013
60.735 5.172446
60.740 5.224496
60.745 5.094319
60.750 4.828053
60.755 4.704611
60.760 4.695351
60.765 4.516415
60.770 4.577988
60.775 4.721479
60.780 4.748463
60.785 5.222086
60.790 5.540245
60.795 5.748316
60.800 6.034365
60.805 5.72077
60.810 5.690013
60.815 5.906169
60.820 5.646513
60.825 5.661682
60.830 5.837994
60.835 5.77596
60.840 6.104735
60.845 6.012041
60.850 5.599087
60.855 5.810142
60.860 5.505784
60.865 5.149093
60.870 5.230527
60.875 5.142423
60.880 5.234587
60.885 5.346956
60.890 5.098574
60.895 5.27318
60.900 5.514537
60.905 5.601716
60.910 5.50351
60.915 5.4026
60.920 5.45741
60.925 5.762193
60.930 5.564737
60.935 5.414309
60.940 5.820345
60.945 6.113156
60.950 5.975799
60.955 5.838342
60.960 5.740631
60.965 5.75925
60.970 5.567248
60.975 4.982656
60.980 4.792988
60.985 5.068551
60.990 4.955099
60.995 4.987159
61.000 5.067304
61.005 5.339493
61.010 5.571448
61.015 5.77898
61.020 5.777971
61.025 5.77258
61.030 5.717142
61.035 5.820062
61.040 5.920821
61.045 5.752316
61.050 5.676351
61.055 5.729695
61.060 6.1153
61.065 6.016098
61.070 6.17835
61.075 6.264795
61.080 6.457314
61.085 6.347514
61.090 5.925051
61.095 5.545412
61.100 5.406405
61.105 4.953254
61.110 4.410016
61.115 4.189772
61.120 3.948882
61.125 4.344281
61.130 4.442447
61.135 4.781754
61.140 5.01044
61.145 5.114004
61.150 5.096639
61.155 5.305952
61.160 5.186455
61.165 5.063391
61.170 4.795806
61.175 4.743401
61.180 4.691031
61.185 4.598791
61.190 4.579792
61.195 4.398727
61.200 4.293343
61.205 4.070821
61.210 3.967857
61.215 3.960667
61.220 4.149341
61.225 4.294796
61.230 4.258775
61.235 4.717681
61.240 5.240461
61.245 5.336296
61.250 5.584349
61.255 5.694737
61.260 6.026853
61.265 6.127445
61.270 6.058168
61.275 5.812968
61.280 5.742238
61.285 5.789181
61.290 5.723908
61.295 5.56656
61.300 5.381223
61.305 5.297127
61.310 5.433486
61.315 5.41064
61.320 5.71592
61.325 5.651314
61.330 5.637475
61.335 5.608037
61.340 5.522213
61.345 5.394372
61.350 5.474124
61.355 4.975453
61.360 5.023288
61.365 4.965739
61.370 5.093774
61.375 5.124031
61.380 5.277995
61.385 5.431674
61.390 5.858407
61.395 5.933959
61.400 6.144963
61.405 6.037674
61.410 5.892697
61.415 5.777306
61.420 5.753741
61.425 5.547301
61.430 5.437323
61.435 5.309498
61.440 5.400614
61.445 5.433588
61.450 5.389013
61.455 5.529793
61.460 5.33339
61.465 5.491215
61.470 5.713985
61.475 5.7183
61.480 5.521054
61.485 5.623696
61.490 5.437663
61.495 5.32237
61.500 5.237803
61.505 4.932721
61.510 5.311481
61.515 5.583243
61.520 5.364987
61.525 5.32443
61.530 5.348359
61.535 5.428673
61.540 5.443196
61.545 5.065231
61.550 5.050277
61.555 5.479226
61.560 5.468347
61.565 5.429278
61.570 5.630152
61.575 6.038121
61.580 6.250157
61.585 6.033804
61.590 5.628303
61.595 5.829755
61.600 5.804192
61.605 5.584226
61.610 5.11997
61.615 5.043791
61.620 5.080234
61.625 5.44874
61.630 5.064936
61.635 4.972353
61.640 4.804612
61.645 4.845778
61.650 5.080351
61.655 5.020465
61.660 4.88281
61.665 4.952631
61.670 4.915027
61.675 5.058918
61.680 5.13005
61.685 5.250139
61.690 5.307872
61.695 4.985678
61.700 5.129307
61.705 5.40619
61.710 5.517455
61.715 5.361033
61.720 5.262327
61.725 5.650661
61.730 6.071251
61.735 5.865509
61.740 5.917967
61.745 6.039247
61.750 6.225213
61.755 6.284826
61.760 6.057294
61.765 5.951608
61.770 6.18705
61.775 5.934474
61.780 5.575865
61.785 5.125945
61.790 5.057192
61.795 4.880727
61.800 4.827861
61.805 4.378581
61.810 4.401672
61.815 4.612084
61.820 4.603776
61.825 4.627379
61.830 4.570752
61.835 4.793484
61.840 5.185297
61.845 5.080847
61.850 4.962888
61.855 5.435766
61.860 5.654492
61.865 6.016381
61.870 5.962851
61.875 5.810215
61.880 6.057027
61.885 6.137815
61.890 5.671307
61.895 5.372721
61.900 5.243906
61.905 4.736518
61.910 4.538619
61.915 4.214476
61.920 4.094519
61.925 4.23452
61.930 4.368286
61.935 4.456045
61.940 4.855299
61.945 5.102682
61.950 5.398449
61.955 5.454244
61.960 5.685444
61.965 5.499456
61.970 5.587812
61.975 5.559278
61.980 5.545624
61.985 5.859961
61.990 5.762677
61.995 5.210815
62.000 5.363017
62.005 5.293114
62.010 5.381624
62.015 5.238151
62.020 4.669949
62.025 4.726375
62.030 5.037529
62.035 4.775452
62.040 4.603074
62.045 4.899827
62.050 4.856051
62.055 5.127969
62.060 5.304007
62.065 5.162367
62.070 5.409981
62.075 5.591317
62.080 5.346981
62.085 5.452306
62.090 5.268671
62.095 5.271465
62.100 5.65616
62.105 5.741317
62.110 5.622666
62.115 5.477334
62.120 5.474211
62.125 5.910093
62.130 6.078207
62.135 6.058816
62.140 6.091455
62.145 6.150349
62.150 6.121714
62.155 6.037211
62.160 5.841503
62.165 5.630236
62.170 5.25787
62.175 4.760478
62.180 4.597933
62.185 4.795983
62.190 4.773189
62.195 4.267478
62.200 4.112564
62.205 4.256504
62.210 4.580518
62.215 4.723586
62.220 4.396503
62.225 4.445832
62.230 4.581797
62.235 4.79903
62.240 5.007975
62.245 5.064256
62.250 4.986463
62.255 4.958857
62.260 5.028184
62.265 4.824137
62.270 4.616113
62.275 4.784446
62.280 4.794033
62.285 4.79838
62.290 5.202288
62.295 5.092544
62.300 5.525817
62.305 5.534897
62.310 5.329592
62.315 5.507175
62.320 5.277672
62.325 5.152514
62.330 5.391825
62.335 5.318717
62.340 5.081786
62.345 5.072293
62.350 4.994099
62.355 5.541957
62.360 5.927353
62.365 5.936532
62.370 5.871346
62.375 6.195158
62.380 6.113657
62.385 5.910757
62.390 5.563384
62.395 5.377478
62.400 5.528408
62.405 5.332304
62.410 5.044948
62.415 5.093391
62.420 5.326123
62.425 5.559241
62.430 5.374988
62.435 5.454747
62.440 5.662952
62.445 5.765642
62.450 5.787797
62.455 5.645113
62.460 5.407597
62.465 5.770181
62.470 5.950121
62.475 6.178314
62.480 5.998662
62.485 5.816405
62.490 5.918417
62.495 5.899503
62.500 5.425102
62.505 5.103963
62.510 5.203172
62.515 5.291001
62.520 5.560655
62.525 5.502422
62.530 5.547207
62.535 5.384801
62.540 5.382838
62.545 5.381961
62.550 5.65066
62.555 5.47417
62.560 5.569692
62.565 5.714585
62.570 5.664147
62.575 5.23818
62.580 5.014858
62.585 4.734006
62.590 4.422614
62.595 4.134302
62.600 3.761879
62.605 3.954304
62.610 4.239567
62.615 4.229851
62.620 4.566151
62.625 4.826003
62.630 5.103654
62.635 5.391556
62.640 5.329148
62.645 5.159164
62.650 4.988031
62.655 4.684316
62.660 4.820847
62.665 4.939501
62.670 5.205354
62.675 5.22927
62.680 5.382843
62.685 5.6179
62.690 5.866181
62.695 5.748574
62.700 5.457536
62.705 4.970548
62.710 5.285016
62.715 5.237463
62.720 5.274629
62.725 5.355881
62.730 5.302808
62.735 5.615098
62.740 6.200218
62.745 5.888844
62.750 6.18539
62.755 6.153235
62.760 6.460609
62.765 6.864779
62.770 6.44885
62.775 6.052509
62.780 6.230268
62.785 6.064282
62.790 5.901614
62.795 5.505497
62.800 5.35334
62.805 5.525614
62.810 5.358985
62.815 4.96183
62.820 4.974277
62.825 5.134514
62.830 4.996578
62.835 4.806233
62.840 4.760394
62.845 4.968596
62.850 5.409457
62.855 5.454114
62.860 5.608522
62.865 6.154017
62.870 6.416243
62.875 6.598907
62.880 6.729452
62.885 6.726951
62.890 6.57199
62.895 6.643386
62.900 6.245086
62.905 6.122706
62.910 5.895076
62.915 5.653395
62.920 5.730781
62.925 5.610077
62.930 5.698862
62.935 5.533195
62.940 5.62276
62.945 5.772755
62.950 5.846811
62.955 5.873491
62.960 5.743154
62.965 5.351737
62.970 5.382481
62.975 5.344575
62.980 5.209682
62.985 5.317039
62.990 5.264235
62.995 5.42662
63.000 5.282596
63.005 5.311073
63.010 5.584854
63.015 5.743093
63.020 5.575292
63.025 6.024338
63.030 6.341618
63.035 6.694114
63.040 6.786516
63.045 6.453581
63.050 6.1608
63.055 5.998713
63.060 5.589598
63.065 5.618735
63.070 5.528005
63.075 5.638644
63.080 5.931995
63.085 6.160988
63.090 6.341845
63.095 5.923341
63.100 5.627578
63.105 5.271775
63.110 5.051576
63.115 4.788702
63.120 4.850968
63.125 4.654575
63.130 4.922399
63.135 5.298728
63.140 5.600169
63.145 5.578648
63.150 5.651049
63.155 5.545887
63.160 5.905484
63.165 5.812581
63.170 5.955095
63.175 6.088829
63.180 6.192246
63.185 6.670461
63.190 7.061991
63.195 7.233294
63.200 7.461209
63.205 7.372317
63.210 7.203342
63.215 7.286853
63.220 6.891231
63.225 6.758549
63.230 6.616489
63.235 6.469068
63.240 6.549813
63.245 6.328706
63.250 6.400112
63.255 6.2143
63.260 6.203897
63.265 6.287043
63.270 6.184639
63.275 6.07715
63.280 6.145748
63.285 5.622669
63.290 5.515052
63.295 5.611067
63.300 5.56055
63.305 5.758399
63.310 5.94696
63.315 6.251674
63.320 6.497091
63.325 6.42392
63.330 6.033965
63.335 5.787351
63.340 5.371192
63.345 5.021346
63.350 5.064734
63.355 5.09687
63.360 5.317648
63.365 5.709333
63.370 6.139054
63.375 6.661884
63.380 6.877235
63.385 6.768042
63.390 6.72929
63.395 6.639662
63.400 6.175924
63.405 5.834781
63.410 5.915314
63.415 5.835433
63.420 5.828394
63.425 5.818019
63.430 5.885467
63.435 6.553526
63.440 6.461691
63.445 6.161552
63.450 6.457761
63.455 6.828575
63.460 7.179675
63.465 7.36543
63.470 7.071898
63.475 7.242321
63.480 7.117202
63.485 6.464324
63.490 6.066924
63.495 5.853953
63.500 5.821154
63.505 5.980833
63.510 6.11598
63.515 6.415573
63.520 6.929062
63.525 7.393865
63.530 7.283988
63.535 6.996827
63.540 6.633613
63.545 6.348491
63.550 6.485392
63.555 6.648685
63.560 6.53912
63.565 6.910709
63.570 7.546752
63.575 8.009896
63.580 8.182963
63.585 7.914466
63.590 7.687802
63.595 7.856163
63.600 8.316379
63.605 8.118052
63.610 8.109027
63.615 8.322662
63.620 8.699606
63.625 8.528722
63.630 8.13824
63.635 7.597197
63.640 7.609273
63.645 7.588394
63.650 7.395364
63.655 7.57458
63.660 8.306485
63.665 8.470126
63.670 8.832553
63.675 8.892185
63.680 9.358957
63.685 9.839186
63.690 9.745448
63.695 9.670429
63.700 10.227549
63.705 10.292198
63.710 10.515017
63.715 10.280548
63.720 10.397278
63.725 11.154767
63.730 11.869521
63.735 12.121355
63.740 12.614998
63.745 13.265179
63.750 14.283308
63.755 15.027274
63.760 14.859063
63.765 15.048996
63.770 15.118005
63.775 15.28397
63.780 16.046564
63.785 17.001797
63.790 17.686602
63.795 19.29143
63.800 20.195843
63.805 21.585955
63.810 22.404165
63.815 22.596996
63.820 23.883194
63.825 24.583227
63.830 24.459723
63.835 24.7733
63.840 25.66744
63.845 26.363586
63.850 26.384832
63.855 26.431883
63.860 27.276169
63.865 27.928167
63.870 28.457586
63.875 28.573601
63.880 28.901825
63.885 30.07498
63.890 31.073883
63.895 31.413757
63.900 32.344475
63.905 32.472672
63.910 32.480907
63.915 32.335327
63.920 32.023376
63.925 31.695745
63.930 32.071098
63.935 31.878057
63.940 32.596458
63.945 33.066471
63.950 33.173557
63.955 32.993248
63.960 33.158779
63.965 32.07262
63.970 31.083529
63.975 29.993694
63.980 28.742453
63.985 28.330885
63.990 28.087328
63.995 27.065886
64.000 27.490988
64.005 27.630156
64.010 27.273584
64.015 27.935732
64.020 28.118917
64.025 27.369421
64.030 27.205021
64.035 26.506672
64.040 26.254879
64.045 26.120686
64.050 25.573141
64.055 25.087757
64.060 25.091732
64.065 24.699545
64.070 24.40316
64.075 24.108154
64.080 24.042677
64.085 23.316942
64.090 22.735601
64.095 22.487329
64.100 22.2743
64.105 22.074259
64.110 21.889811
64.115 21.213696
64.120 21.421688
64.125 21.608965
64.130 21.517586
64.135 20.527691
64.140 19.08905
64.145 18.191608
64.150 17.355639
64.155 16.718069
64.160 16.683149
64.165 16.023214
64.170 15.666934
64.175 15.947048
64.180 16.028412
64.185 15.983999
64.190 15.606477
64.195 14.857716
64.200 14.514187
64.205 13.999772
64.210 13.487904
64.215 13.031919
64.220 12.333638
64.225 11.618541
64.230 11.416215
64.235 10.955021
64.240 10.89889
64.245 10.516825
64.250 9.943508
64.255 10.006673
64.260 10.149365
64.265 10.051092
64.270 9.962585
64.275 9.247593
64.280 9.022084
64.285 8.906948
64.290 9.037018
64.295 9.060262
64.300 8.741056
64.305 8.273937
64.310 8.408578
64.315 8.535393
64.320 8.577394
64.325 8.097681
64.330 8.058096
64.335 8.166528
64.340 9.048509
64.345 8.969848
64.350 8.405471
64.355 8.621037
64.360 9.109486
64.365 8.913853
64.370 8.546123
64.375 8.023101
64.380 7.941339
64.385 8.226537
64.390 7.837408
64.395 7.47998
64.400 7.267338
64.405 7.395418
64.410 7.322045
64.415 7.851153
64.420 7.784075
64.425 7.379917
64.430 7.398917
64.435 7.428104
64.440 7.17316
64.445 6.96096
64.450 6.589943
64.455 6.718397
64.460 7.168295
64.465 7.405333
64.470 7.504021
64.475 7.719005
64.480 7.971642
64.485 7.788432
64.490 7.439911
64.495 7.018231
64.500 6.662464
64.505 6.383406
64.510 6.081825
64.515 5.749404
64.520 5.848635
64.525 6.218713
64.530 6.991195
64.535 6.857564
64.540 7.271204
64.545 7.506143
64.550 7.526528
64.555 7.442042
64.560 7.265252
64.565 6.491988
64.570 6.035684
64.575 5.605162
64.580 5.664112
64.585 5.8451
64.590 5.982848
64.595 5.923028
64.600 6.166776
64.605 6.318047
64.610 6.430037
64.615 6.388129
64.620 6.269619
64.625 6.008073
64.630 5.916224
64.635 5.803535
64.640 6.085867
64.645 6.069667
64.650 5.988607
64.655 5.843796
64.660 5.524188
64.665 5.578708
64.670 5.676075
64.675 6.010508
64.680 6.33996
64.685 6.223001
64.690 6.320438
64.695 6.842957
64.700 6.848018
64.705 6.721604
64.710 6.327457
64.715 6.190644
64.720 6.213201
64.725 6.398993
64.730 6.17272
64.735 6.144248
64.740 6.329673
64.745 6.3973
64.750 6.237226
64.755 6.147134
64.760 5.93224
64.765 5.967674
64.770 6.141209
64.775 5.984219
64.780 5.768462
64.785 5.655229
64.790 5.658699
64.795 5.739854
64.800 5.784639
64.805 5.526831
64.810 5.691104
64.815 5.790762
64.820 5.969707
64.825 6.098217
64.830 6.228065
64.835 6.233681
64.840 6.135042
64.845 5.948775
64.850 6.078902
64.855 6.060082
64.860 6.204299
64.865 6.264458
64.870 6.367671
64.875 6.340565
64.880 6.259326
64.885 5.902159
64.890 5.860271
64.895 5.740434
64.900 5.515357
64.905 5.462794
64.910 5.894318
64.915 5.983669
64.920 5.970235
64.925 5.833316
64.930 5.585397
64.935 5.258263
64.940 5.170141
64.945 5.222867
64.950 5.597543
64.955 5.779218
64.960 5.594035
64.965 5.945444
64.970 6.404748
64.975 6.710252
64.980 6.971251
64.985 7.08488
64.990 7.479943
64.995 8.158279
65.000 7.984461
65.005 7.907157
65.010 7.607293
65.015 6.911946
65.020 6.518545
65.025 6.552533
65.030 6.227437
65.035 6.545413
65.040 6.797688
65.045 6.877246
65.050 7.140226
65.055 7.059555
65.060 6.792327
65.065 6.687301
65.070 5.83511
65.075 5.348978
65.080 5.156046
65.085 5.065129
65.090 5.404696
65.095 5.623605
65.100 5.911301
65.105 6.414803
65.110 6.778279
65.115 6.886128
65.120 6.785046
65.125 6.340217
65.130 6.136613
65.135 5.945271
65.140 5.90117
65.145 5.507139
65.150 5.267556
65.155 5.242191
65.160 5.432775
65.165 5.549687
65.170 5.444394
65.175 5.270286
65.180 5.321579
65.185 5.733734
65.190 5.753449
65.195 5.481646
65.200 5.064326
65.205 4.93981
65.210 5.167876
65.215 5.650996
65.220 5.623176
65.225 5.54031
65.230 5.500416
65.235 5.932345
65.240 6.306564
65.245 6.141479
65.250 5.898048
65.255 5.616896
65.260 5.532332
65.265 5.510561
65.270 5.336911
65.275 5.131733
65.280 5.238606
65.285 5.208273
65.290 5.52678
65.295 5.93099
65.300 6.3257
65.305 6.016267
65.310 5.791583
65.315 5.638713
65.320 5.423391
65.325 5.399488
65.330 5.362903
65.335 5.072604
65.340 5.17064
65.345 5.103532
65.350 5.14971
65.355 5.028465
65.360 4.894406
65.365 4.689296
65.370 4.685292
65.375 4.775686
65.380 4.927398
65.385 4.785466
65.390 4.942576
65.395 4.953718
65.400 4.959237
65.405 4.860846
65.410 4.842581
65.415 4.966085
65.420 5.083517
65.425 4.827384
65.430 5.353473
65.435 5.624922
65.440 5.666146
65.445 5.814071
65.450 5.653695
65.455 5.740067
65.460 5.972526
65.465 5.380508
65.470 5.214298
65.475 5.193274
65.480 5.304822
65.485 5.479816
65.490 5.737169
65.495 5.802657
65.500 5.916103
65.505 5.787361
65.510 5.603982
65.515 5.329659
65.520 5.234365
65.525 4.640559
65.530 4.551373
65.535 4.912049
65.540 5.450253
65.545 5.655499
65.550 5.60464
65.555 5.663257
65.560 6.194086
65.565 6.542962
65.570 5.909219
65.575 5.611095
65.580 5.694283
65.585 5.803637
65.590 5.532588
65.595 5.441642
65.600 5.146903
65.605 5.768736
65.610 6.073
65.615 5.994363
65.620 6.043965
65.625 5.963321
65.630 5.458259
65.635 5.414197
65.640 4.730741
65.645 4.498811
65.650 4.613625
65.655 4.563874
65.660 4.756124
65.665 4.863452
65.670 4.845487
65.675 5.026369
65.680 5.092879
65.685 5.113387
65.690 5.099145
65.695 5.26532
65.700 5.299957
65.705 5.380043
65.710 5.457176
65.715 5.236652
65.720 5.179889
65.725 5.31273
65.730 5.34436
65.735 5.855057
65.740 6.122317
65.745 6.274943
65.750 6.571781
65.755 6.691211
65.760 6.809299
65.765 6.855577
65.770 6.438936
65.775 6.070695
65.780 6.274488
65.785 6.282516
65.790 6.469316
65.795 6.455024
65.800 6.245831
65.805 6.483833
65.810 6.567509
65.815 6.183715
65.820 6.197319
65.825 6.188942
65.830 6.204062
65.835 6.291052
65.840 6.043629
65.845 5.628775
65.850 5.314063
65.855 5.067364
65.860 4.723376
65.865 4.736991
65.870 4.82314
65.875 4.721672
65.880 4.974669
65.885 5.258958
65.890 5.501998
65.895 5.62665
65.900 5.535808
65.905 5.474723
65.910 5.885162
65.915 5.880884
65.920 5.741386
65.925 5.550306
65.930 5.448426
65.935 5.15469
65.940 5.210257
65.945 5.267888
65.950 5.632183
65.955 6.197968
65.960 6.293637
65.965 6.462204
65.970 6.676428
65.975 6.573124
65.980 6.321436
65.985 6.169545
65.990 5.69776
65.995 5.388062
66.000 5.393792
66.005 5.414096
66.010 5.581614
66.015 5.556794
66.020 5.592776
66.025 5.473063
66.030 5.506094
66.035 5.376171
66.040 5.349578
66.045 5.220555
66.050 4.997624
66.055 4.420029
66.060 4.595984
66.065 5.170048
66.070 5.533064
66.075 5.409575
66.080 5.338313
66.085 5.609304
66.090 5.969811
66.095 5.865424
66.100 5.294471
66.105 4.712282
66.110 4.649971
66.115 4.819304
66.120 4.702963
66.125 4.401322
66.130 4.427567
66.135 4.489149
66.140 4.723023
66.145 4.910433
66.150 4.931707
66.155 5.119351
66.160 5.539413
66.165 5.676637
66.170 5.793333
66.175 5.847942
66.180 5.72525
66.185 5.569684
66.190 5.192481
66.195 4.967729
66.200 4.902893
66.205 4.907012
66.210 5.13848
66.215 5.09973
66.220 5.023353
66.225 5.332554
66.230 5.734713
66.235 5.722182
66.240 5.853282
66.245 5.57385
66.250 6.037633
66.255 6.105613
66.260 6.098612
66.265 6.132641
66.270 6.355074
66.275 6.261924
66.280 6.032521
66.285 5.685879
66.290 5.636368
66.295 5.339923
66.300 4.746559
66.305 4.486809
66.310 4.575729
66.315 4.889802
66.320 4.852492
66.325 4.880843
66.330 5.356711
66.335 5.403723
66.340 5.262644
66.345 5.561708
66.350 5.25
66.355 5.498766
66.360 5.598278
66.365 5.549095
66.370 6.304291
66.375 6.578575
66.380 6.217813
66.385 6.326661
66.390 6.2094
66.395 6.350136
66.400 6.074637
66.405 6.035333
66.410 5.809947
66.415 6.11996
66.420 6.674027
66.425 6.453342
66.430 6.49633
66.435 6.669049
66.440 6.434431
66.445 6.780223
66.450 6.365957
66.455 6.015635
66.460 6.187801
66.465 5.98929
66.470 5.805567
66.475 5.661145
66.480 5.561125
66.485 6.128808
66.490 6.291787
66.495 6.233685
66.500 6.345555
66.505 6.190671
66.510 5.952217
66.515 6.013966
66.520 5.814254
66.525 5.881165
66.530 6.328207
66.535 6.143335
66.540 6.294492
66.545 6.323484
66.550 6.105143
66.555 5.928128
66.560 5.633361
66.565 5.067649
66.570 5.421285
66.575 6.027753
66.580 5.950788
66.585 5.961482
66.590 5.900913
66.595 6.128292
66.600 6.137644
66.605 5.88495
66.610 5.415291
66.615 5.693443
66.620 5.617543
66.625 5.909214
66.630 5.825448
66.635 5.750647
66.640 5.925949
66.645 5.953596
66.650 5.816631
66.655 5.573872
66.660 5.410942
66.665 5.204107
66.670 5.273012
66.675 5.039033
66.680 5.214729
66.685 5.291238
66.690 5.101398
66.695 4.904282
66.700 5.066083
66.705 5.129116
66.710 5.408211
66.715 5.267311
66.720 5.310452
66.725 5.756613
66.730 5.914578
66.735 5.889957
66.740 5.737024
66.745 5.70426
66.750 5.696821
66.755 5.877709
66.760 6.370096
66.765 6.636981
66.770 6.688589
66.775 6.754016
66.780 6.750324
66.785 6.895948
66.790 6.90747
66.795 6.25563
66.800 6.222446
66.805 6.136557
66.810 5.90956
66.815 5.96358
66.820 5.629735
66.825 5.402942
66.830 5.550098
66.835 5.660774
66.840 5.823786
66.845 6.143035
66.850 6.07557
66.855 6.15808
66.860 6.315547
66.865 6.316128
66.870 6.205197
66.875 6.185692
66.880 5.814854
66.885 5.798352
66.890 6.066363
66.895 6.430432
66.900 6.5495
66.905 6.661973
66.910 6.525034
66.915 6.469903
66.920 6.399601
66.925 6.273832
66.930 6.009078
66.935 5.722884
66.940 5.892011
66.945 6.345945
66.950 6.587223
66.955 7.119413
66.960 7.396358
66.965 7.548777
66.970 7.852177
66.975 7.78105
66.980 7.913415
66.985 7.864495
66.990 7.334566
66.995 7.551112
67.000 7.569483
67.005 7.826559
67.010 7.757523
67.015 7.647163
67.020 8.328559
67.025 8.92196
67.030 8.761798
67.035 8.696934
67.040 8.499353
67.045 8.869816
67.050 8.951535
67.055 9.081332
67.060 9.376047
67.065 9.824714
67.070 10.045985
67.075 10.447381
67.080 10.31835
67.085 10.841736
67.090 10.378498
67.095 10.269213
67.100 10.371972
67.105 10.492146
67.110 10.67821
67.115 11.14123
67.120 11.532526
67.125 12.328594
67.130 12.043131
67.135 12.443421
67.140 12.792403
67.145 13.04047
67.150 13.56022
67.155 14.00682
67.160 14.779737
67.165 15.919921
67.170 15.956534
67.175 15.869707
67.180 16.448692
67.185 16.985157
67.190 17.195766
67.195 17.268284
67.200 17.727207
67.205 17.757061
67.210 18.654346
67.215 18.38154
67.220 17.769367
67.225 18.045729
67.230 18.464012
67.235 18.327543
67.240 18.743336
67.245 18.218954
67.250 17.8696
67.255 17.199955
67.260 16.733797
67.265 16.60894
67.270 16.368355
67.275 16.23819
67.280 16.370647
67.285 16.535839
67.290 16.867136
67.295 17.037416
67.300 16.92589
67.305 16.237425
67.310 15.694293
67.315 15.378612
67.320 15.567046
67.325 15.585101
67.330 15.310767
67.335 15.551894
67.340 16.324499
67.345 16.648726
67.350 16.426348
67.355 16.249922
67.360 16.268663
67.365 15.904132
67.370 14.811695
67.375 14.55514
67.380 14.617764
67.385 15.34651
67.390 15.504031
67.395 14.895152
67.400 14.984487
67.405 15.030435
67.410 14.34021
67.415 13.721452
67.420 12.917288
67.425 13.213044
67.430 13.501441
67.435 12.720626
67.440 12.137024
67.445 12.06126
67.450 11.98893
67.455 11.739094
67.460 11.30326
67.465 11.364382
67.470 11.791897
67.475 12.34166
67.480 12.321066
67.485 12.069941
67.490 11.922121
67.495 11.292771
67.500 10.749698
67.505 10.225564
67.510 9.464779
67.515 9.151279
67.520 8.823501
67.525 8.833569
67.530 9.241094
67.535 9.311696
67.540 9.329168
67.545 9.23455
67.550 9.425876
67.555 9.587403
67.560 8.875452
67.565 8.161235
67.570 8.148416
67.575 7.999018
67.580 8.040359
67.585 7.962968
67.590 7.998168
67.595 8.108815
67.600 7.931924
67.605 7.669786
67.610 7.545866
67.615 7.39882
67.620 7.137292
67.625 7.069979
67.630 7.321624
67.635 7.688827
67.640 7.878539
67.645 7.816101
67.650 7.663116
67.655 7.457352
67.660 7.136807
67.665 6.780064
67.670 6.503453
67.675 6.482713
67.680 6.626237
67.685 6.640459
67.690 6.974545
67.695 7.31308
67.700 7.507963
67.705 7.085705
67.710 6.938436
67.715 6.64587
67.720 6.83262
67.725 6.837133
67.730 6.735119
67.735 6.869451
67.740 7.143742
67.745 7.054866
67.750 7.072154
67.755 6.689056
67.760 6.345684
67.765 5.94337
67.770 5.667714
67.775 5.693417
67.780 5.669786
67.785 5.720405
67.790 5.884189
67.795 5.992442
67.800 6.317874
67.805 6.369911
67.810 6.535568
67.815 6.458122
67.820 6.325282
67.825 6.211947
67.830 6.633114
67.835 6.758398
67.840 6.974064
67.845 6.975568
67.850 7.384551
67.855 7.491861
67.860 7.540214
67.865 7.689799
67.870 7.37271
67.875 7.029877
67.880 6.644052
67.885 6.230639
67.890 6.319695
67.895 6.392483
67.900 5.811269
67.905 5.938183
67.910 6.114508
67.915 5.867589
67.920 6.050947
67.925 5.43168
67.930 5.080812
67.935 5.10182
67.940 5.238274
67.945 5.240958
67.950 5.459851
67.955 5.473249
67.960 5.643178
67.965 5.70199
67.970 5.594478
67.975 5.256868
67.980 5.414262
67.985 5.282002
67.990 5.129409
67.995 5.28359
68.000 5.241951
68.005 5.194319
68.010 5.15006
68.015 5.035665
68.020 5.291682
68.025 5.456004
68.030 5.364494
68.035 5.399179
68.040 5.775901
68.045 5.950513
68.050 5.826634
68.055 6.000691
68.060 5.900378
68.065 6.015547
68.070 5.935981
68.075 5.402508
68.080 5.220291
68.085 5.131695
68.090 5.211902
68.095 5.603608
68.100 5.486255
68.105 5.441438
68.110 5.36261
68.115 5.457181
68.120 5.416301
68.125 4.938101
68.130 4.891592
68.135 5.184783
68.140 5.438993
68.145 5.727019
68.150 5.709193
68.155 6.02248
68.160 5.949951
68.165 5.899004
68.170 5.826822
68.175 5.798164
68.180 5.694949
68.185 5.692683
68.190 5.496225
68.195 5.742795
68.200 5.754088
68.205 5.805945
68.210 5.72984
68.215 6.019047
68.220 5.995414
68.225 6.132183
68.230 5.93012
68.235 5.744488
68.240 5.639444
68.245 5.697624
68.250 5.619298
68.255 5.558457
68.260 5.327992
68.265 5.226005
68.270 5.576848
68.275 5.512002
68.280 5.453346
68.285 5.358669
68.290 5.239704
68.295 5.52025
68.300 5.8183
68.305 5.837118
68.310 6.099228
68.315 5.985749
68.320 6.233647
68.325 6.527098
68.330 6.440817
68.335 6.162836
68.340 5.902357
68.345 5.937587
68.350 6.055192
68.355 6.019883
68.360 5.821811
68.365 5.776955
68.370 5.757709
68.375 5.891527
68.380 5.671593
68.385 5.601517
68.390 5.615043
68.395 5.784902
68.400 5.958245
68.405 5.923826
68.410 5.834307
68.415 5.816133
68.420 5.524504
68.425 5.352409
68.430 5.258571
68.435 5.066132
68.440 5.212725
68.445 5.415678
68.450 5.438485
68.455 5.677428
68.460 5.482831
68.465 5.521397
68.470 5.363919
68.475 5.418447
68.480 5.689572
68.485 5.949851
68.490 6.033394
68.495 6.14946
68.500 6.240432
68.505 6.27127
68.510 6.10818
68.515 5.788591
68.520 5.98325
68.525 6.027114
68.530 6.253863
68.535 6.269031
68.540 6.158675
68.545 6.141321
68.550 5.888733
68.555 5.446413
68.560 5.266818
68.565 4.947268
68.570 4.828362
68.575 4.767636
68.580 4.35316
68.585 4.22399
68.590 4.382794
68.595 4.600328
68.600 4.566069
68.605 4.552258
68.610 4.727785
68.615 5.169669
68.620 5.393621
68.625 5.375971
68.630 5.087477
68.635 5.03042
68.640 5.108021
68.645 5.222449
68.650 4.983584
68.655 5.137597
68.660 5.251262
68.665 5.56899
68.670 5.590816
68.675 5.667488
68.680 5.497996
68.685 5.698634
68.690 5.430834
68.695 5.445125
68.700 5.553135
68.705 5.732129
68.710 5.663646
68.715 6.022459
68.720 6.070652
68.725 5.913347
68.730 5.747757
68.735 5.39769
68.740 5.660068
68.745 5.795538
68.750 5.48308
68.755 5.416834
68.760 5.959135
68.765 6.018384
68.770 6.153146
68.775 5.879758
68.780 5.629793
68.785 5.50065
68.790 5.627961
68.795 5.395475
68.800 5.43176
68.805 5.243505
68.810 5.267492
68.815 5.634355
68.820 5.958673
68.825 6.040972
68.830 5.838231
68.835 5.721952
68.840 5.916722
68.845 6.005022
68.850 5.725671
68.855 5.462925
68.860 5.176208
68.865 5.432489
68.870 5.320935
68.875 5.302601
68.880 5.093536
68.885 5.346298
68.890 5.625795
68.895 5.470346
68.900 5.414849
68.905 5.454021
68.910 5.446054
68.915 5.504901
68.920 5.186536
68.925 5.106094
68.930 5.5829
68.935 5.767342
68.940 5.777534
68.945 5.550158
68.950 5.765012
68.955 5.840398
68.960 5.824626
68.965 5.445004
68.970 5.369868
68.975 5.393013
68.980 5.235452
68.985 4.903841
68.990 4.831662
68.995 4.994962
69.000 5.05024
69.005 4.960667
69.010 4.961209
69.015 5.218557
69.020 5.30163
69.025 5.058482
69.030 5.082597
69.035 5.654417
69.040 5.988615
69.045 6.281332
69.050 5.968934
69.055 5.951084
69.060 6.172826
69.065 5.817184
69.070 4.916169
69.075 4.698469
69.080 4.889826
69.085 5.189394
69.090 5.203986
69.095 5.216265
69.100 5.239006
69.105 5.403094
69.110 5.573837
69.115 5.258627
69.120 5.350315
69.125 5.521266
69.130 5.521742
69.135 5.614299
69.140 5.703803
69.145 5.703174
69.150 6.282025
69.155 5.927319
69.160 5.787881
69.165 5.834679
69.170 6.217463
69.175 6.104567
69.180 5.898618
69.185 5.597194
69.190 5.734764
69.195 5.744911
69.200 5.789418
69.205 5.411727
69.210 5.433552
69.215 5.317883
69.220 5.472079
69.225 5.606862
69.230 5.528227
69.235 5.336317
69.240 5.302938
69.245 5.373093
69.250 5.153464
69.255 5.102609
69.260 4.988173
69.265 4.975781
69.270 5.010426
69.275 5.040568
69.280 5.106913
69.285 5.361168
69.290 5.257235
69.295 5.295249
69.300 5.210727
69.305 5.609879
69.310 5.87124
69.315 5.778122
69.320 5.31758
69.325 5.220205
69.330 5.005458
69.335 5.024513
69.340 4.623002
69.345 4.518807
69.350 4.432922
69.355 4.781067
69.360 4.902226
69.365 5.136361
69.370 5.329491
69.375 5.548422
69.380 5.595303
69.385 5.778814
69.390 5.79179
69.395 6.135782
69.400 6.125062
69.405 5.961511
69.410 6.111761
69.415 6.053225
69.420 6.398509
69.425 6.75799
69.430 6.864566
69.435 7.030597
69.440 6.74145
69.445 6.385602
69.450 6.119086
69.455 5.663712
69.460 5.266038
69.465 5.185876
69.470 5.175611
69.475 5.397251
69.480 5.579577
69.485 6.140354
69.490 6.301464
69.495 6.187407
69.500 5.911601
69.505 5.684938
69.510 5.613914
69.515 5.230362
69.520 4.52718
69.525 4.16339
69.530 4.032585
69.535 4.056777
69.540 4.219386
69.545 4.313178
69.550 4.580025
69.555 4.745665
69.560 4.937815
69.565 5.229629
69.570 5.110795
69.575 5.07907
69.580 4.959136
69.585 4.947992
69.590 4.929033
69.595 5.032708
69.600 4.866082
69.605 5.164727
69.610 5.286605
69.615 5.447175
69.620 5.431996
69.625 5.496467
69.630 5.246701
69.635 5.21743
69.640 5.300113
69.645 5.237879
69.650 4.933443
69.655 4.795578
69.660 4.734821
69.665 4.732307
69.670 4.523221
69.675 4.269953
69.680 4.318357
69.685 4.44789
69.690 4.786095
69.695 4.90177
69.700 5.004281
69.705 5.238576
69.710 5.148136
69.715 5.216693
69.720 5.154135
69.725 4.865142
69.730 4.990025
69.735 5.053747
69.740 5.285945
69.745 5.29185
69.750 5.410151
69.755 5.425867
69.760 5.594294
69.765 5.479997
69.770 5.559342
69.775 5.844233
69.780 5.904898
69.785 5.789738
69.790 5.76497
69.795 5.831184
69.800 5.797662
69.805 5.373582
69.810 4.998428
69.815 4.858116
69.820 4.799155
69.825 4.80639
69.830 4.764126
69.835 4.716369
69.840 4.824665
69.845 4.778556
69.850 4.972025
69.855 5.247146
69.860 5.476735
69.865 5.318729
69.870 5.479987
69.875 5.701513
69.880 5.893095
69.885 6.003115
69.890 5.950737
69.895 6.110363
69.900 6.115659
69.905 5.810476
69.910 5.871516
69.915 5.901625
69.920 5.977864
69.925 6.016041
69.930 5.747876
69.935 6.216554
69.940 6.320091
69.945 6.158778
69.950 6.121875
69.955 5.959429
69.960 5.993273
69.965 5.87823
69.970 5.546886
69.975 5.336499
69.980 5.244585
69.985 5.258893
69.990 5.189111
69.995 4.923856
70.000 4.803604
70.005 4.762162
70.010 5.080719
70.015 5.304852
70.020 5.332814
70.025 5.360284
70.030 5.592309
70.035 6.109724
70.040 6.398995
70.045 6.06455
70.050 5.895041
70.055 5.803816
70.060 5.976468
70.065 6.244289
70.070 6.00184
70.075 5.918966
70.080 5.838957
70.085 5.844807
70.090 6.140034
70.095 5.943144
70.100 5.582102
70.105 5.516592
70.110 5.536538
70.115 5.48701
70.120 5.27478
70.125 5.145786
70.130 5.331719
70.135 5.453934
70.140 5.372808
70.145 5.397551
70.150 5.523772
70.155 5.505564
70.160 5.218977
70.165 4.940324
70.170 4.884593
70.175 5.085532
70.180 5.255785
70.185 5.390221
70.190 5.57775
70.195 5.533284
70.200 5.789796
70.205 5.877311
70.210 5.774172
70.215 5.971267
70.220 5.778106
70.225 5.815943
70.230 6.262529
70.235 6.209105
70.240 5.905938
70.245 5.824172
70.250 5.903576
70.255 6.077233
70.260 5.839106
70.265 5.646671
70.270 5.660386
70.275 5.762036
70.280 5.430829
70.285 4.780285
70.290 4.709538
70.295 4.714706
70.300 4.381108
70.305 4.196823
70.310 4.166998
70.315 4.376334
70.320 4.567942
70.325 4.534696
70.330 4.386787
70.335 4.426122
70.340 4.498626
70.345 4.628758
70.350 4.915833
70.355 5.010372
70.360 5.630682
70.365 6.002715
70.370 6.02843
70.375 6.104649
70.380 5.977791
70.385 5.712863
70.390 5.783528
70.395 5.437984
70.400 5.508567
70.405 5.535735
70.410 5.395971
70.415 5.449767
70.420 5.728161
70.425 5.659858
70.430 5.599411
70.435 5.515364
70.440 5.511194
70.445 5.983309
70.450 6.301345
70.455 6.093102
70.460 6.416259
70.465 6.142112
70.470 6.086066
70.475 6.048111
70.480 5.809086
70.485 5.703381
70.490 5.613335
70.495 5.250296
70.500 5.417536
70.505 5.47758
70.510 5.350677
70.515 5.062368
70.520 4.513488
70.525 4.425564
70.530 4.566231
70.535 4.763764
70.540 4.620331
70.545 4.662222
70.550 4.821645
70.555 5.378199
70.560 5.209198
70.565 5.32975
70.570 5.24686
70.575 5.474281
70.580 5.614732
70.585 5.844528
70.590 5.649858
70.595 5.59598
70.600 5.665672
70.605 6.003798
70.610 5.856189
70.615 5.760016
70.620 5.774671
70.625 5.912884
70.630 5.880837
70.635 5.366868
70.640 5.069756
70.645 5.147609
70.650 4.92312
70.655 4.643387
70.660 4.840705
70.665 5.102113
70.670 4.90477
70.675 4.800228
70.680 4.819821
70.685 5.042053
70.690 5.259609
70.695 5.261565
70.700 5.632903
70.705 6.009234
70.710 6.135314
70.715 6.28622
70.720 6.256968
70.725 6.114369
70.730 5.909062
70.735 5.789281
70.740 5.883216
70.745 5.679047
70.750 5.264711
70.755 5.191967
70.760 5.087656
70.765 4.828855
70.770 4.511864
70.775 4.493382
70.780 4.909729
70.785 5.118662
70.790 5.013123
70.795 4.912614
70.800 4.849779
70.805 4.890241
70.810 4.91768
70.815 4.82957
70.820 5.181676
70.825 5.263571
70.830 5.610597
70.835 5.895762
70.840 6.12485
70.845 6.049542
70.850 5.99131
70.855 5.983902
70.860 5.930791
70.865 5.934454
70.870 5.691442
70.875 5.487764
70.880 5.633962
70.885 5.515852
70.890 5.417646
70.895 5.425703
70.900 5.060695
70.905 4.890887
70.910 4.922368
70.915 4.851428
70.920 4.89456
70.925 5.088926
70.930 5.129903
70.935 5.462439
70.940 5.674139
70.945 5.643389
70.950 5.460251
70.955 5.625671
70.960 5.20703
70.965 5.447462
70.970 5.530416
70.975 5.451641
70.980 5.57268
70.985 5.490974
70.990 5.147563
70.995 5.53768
71.000 5.536126
71.005 5.510842
71.010 5.594144
71.015 5.317853
71.020 5.498159
71.025 5.673542
71.030 5.779923
71.035 5.884151
71.040 6.187721
71.045 6.056242
71.050 6.264276
71.055 6.49545
71.060 6.21322
71.065 5.644609
71.070 5.571827
71.075 5.349441
71.080 5.593309
71.085 5.772552
71.090 5.775355
71.095 5.973266
71.100 6.108985
71.105 5.596218
71.110 5.426487
71.115 5.436459
71.120 4.943872
71.125 4.688035
71.130 4.52734
71.135 4.434568
71.140 4.748464
71.145 4.715296
71.150 4.723467
71.155 5.021533
71.160 5.265884
71.165 5.416363
71.170 5.596279
71.175 5.8738
71.180 5.981099
71.185 5.994389
71.190 5.989744
71.195 5.963744
71.200 6.357969
71.205 6.285904
71.210 6.108332
71.215 6.252014
71.220 6.103177
71.225 6.23747
71.230 6.02957
71.235 5.568162
71.240 5.322638
71.245 5.269141
71.250 5.251666
71.255 5.381967
71.260 5.359244
71.265 5.515293
71.270 5.593307
71.275 5.983289
71.280 5.825964
71.285 5.877838
71.290 5.672862
71.295 5.347746
71.300 5.390315
71.305 5.421958
71.310 5.006983
71.315 5.117755
71.320 5.033386
71.325 5.149899
71.330 5.253797
71.335 5.140488
71.340 5.212173
71.345 5.448895
71.350 5.28729
71.355 5.344451
71.360 5.060006
71.365 4.975227
71.370 4.77863
71.375 4.779338
71.380 4.563682
71.385 4.604844
71.390 4.710157
71.395 5.073157
71.400 5.129883
71.405 5.230742
71.410 5.401812
71.415 5.698731
71.420 5.65114
71.425 5.490633
71.430 5.504269
71.435 5.67213
71.440 5.691823
71.445 5.682408
71.450 5.873466
71.455 5.781136
71.460 6.089659
71.465 6.096163
71.470 6.119793
71.475 5.853992
71.480 5.609065
71.485 5.126683
71.490 5.214887
71.495 4.954538
71.500 4.86857
71.505 4.643247
71.510 4.651995
71.515 4.491297
71.520 4.442031
71.525 4.452985
71.530 4.466029
71.535 4.328508
71.540 4.350259
71.545 4.446122
71.550 4.502872
71.555 4.349425
71.560 4.42612
71.565 4.262292
71.570 4.238641
71.575 4.522309
71.580 4.655752
71.585 4.578988
71.590 4.52826
71.595 3.933076
71.600 3.9522
71.605 4.042561
71.610 4.028293
71.615 4.366801
71.620 4.66252
71.625 5.086771
71.630 5.50088
71.635 5.427333
71.640 5.293497
71.645 4.99641
71.650 5.254722
71.655 5.158058
71.660 5.161396
71.665 4.986385
71.670 4.91102
71.675 5.024128
71.680 4.973749
71.685 4.402601
71.690 4.683614
71.695 4.753107
71.700 5.064575
71.705 5.549384
71.710 5.492414
71.715 5.465771
71.720 5.522378
71.725 5.355147
71.730 5.481527
71.735 5.102426
71.740 4.914607
71.745 5.128391
71.750 5.633305
71.755 5.869054
71.760 5.744554
71.765 5.658501
71.770 5.906593
71.775 5.940474
71.780 5.670777
71.785 5.488553
71.790 5.288262
71.795 5.454097
71.800 5.399913
71.805 5.300715
71.810 5.386637
71.815 5.489367
71.820 5.413357
71.825 5.611475
71.830 5.722092
71.835 6.012355
71.840 6.076247
71.845 5.887894
71.850 5.612154
71.855 5.385164
71.860 5.028396
71.865 4.512242
71.870 4.544592
71.875 4.375546
71.880 4.37136
71.885 4.496897
71.890 4.855505
71.895 5.008248
71.900 5.308709
71.905 5.560605
71.910 5.910428
71.915 6.172932
71.920 6.18211
71.925 6.020299
71.930 6.088594
71.935 5.943721
71.940 6.007691
71.945 5.967148
71.950 5.936696
71.955 5.914597
71.960 5.745587
71.965 5.539724
71.970 5.273161
71.975 5.031126
71.980 4.807543
71.985 4.843326
71.990 4.95775
71.995 4.995056
72.000 5.133943
72.005 5.380229
72.010 5.693451
72.015 5.69551
72.020 5.751881
72.025 5.597048
72.030 5.347881
72.035 5.314448
72.040 5.081122
72.045 4.825336
72.050 4.968507
72.055 5.10155
72.060 4.955823
72.065 5.290793
72.070 5.488668
72.075 5.439726
72.080 5.388268
72.085 4.940507
72.090 4.965163
72.095 5.279385
72.100 5.201941
72.105 4.928969
72.110 4.781757
72.115 4.89662
72.120 4.920151
72.125 4.441202
72.130 4.301389
72.135 3.922441
72.140 4.145303
72.145 4.318991
72.150 4.368212
72.155 4.339211
72.160 4.595203
72.165 4.59142
72.170 4.718098
72.175 4.413814
72.180 4.470243
72.185 4.638086
72.190 4.901829
72.195 5.130139
72.200 5.383323
72.205 5.531818
72.210 5.761775
72.215 5.804881
72.220 5.710112
72.225 5.418751
72.230 5.050809
72.235 5.08702
72.240 4.989532
72.245 4.973263
72.250 4.836644
72.255 4.815939
72.260 5.109769
72.265 5.52161
72.270 5.402742
72.275 5.778847
72.280 5.600094
72.285 5.85027
72.290 5.76885
72.295 5.647613
72.300 5.412359
72.305 5.459352
72.310 5.11101
72.315 5.25418
72.320 5.141335
72.325 5.223514
72.330 5.257491
72.335 5.093292
72.340 5.226737
72.345 5.133597
72.350 5.006187
72.355 4.556193
72.360 4.512575
72.365 5.042926
72.370 5.261003
72.375 4.901711
72.380 5.084794
72.385 5.266976
72.390 5.251657
72.395 5.162014
72.400 4.747876
72.405 4.624318
72.410 4.652811
72.415 4.72607
72.420 5.420986
72.425 5.684751
72.430 5.852776
72.435 5.771315
72.440 5.976066
72.445 5.925478
72.450 5.61864
72.455 5.077441
72.460 5.109007
72.465 5.029451
72.470 4.970528
72.475 5.136802
72.480 5.20867
72.485 5.534119
72.490 5.587187
72.495 5.787736
72.500 5.875755
72.505 6.01553
72.510 6.050367
72.515 6.095006
72.520 5.823684
72.525 5.552022
72.530 5.320557
72.535 5.395
72.540 5.414056
72.545 5.187965
72.550 4.807439
72.555 4.990945
72.560 5.035555
72.565 5.156835
72.570 4.74342
72.575 4.612413
72.580 4.625137
72.585 4.673994
72.590 4.802958
72.595 4.921399
72.600 4.84736
72.605 5.085141
72.610 5.234905
72.615 5.488404
72.620 5.34104
72.625 5.181873
72.630 5.06419
72.635 5.283807
72.640 5.004504
72.645 4.929626
72.650 5.182367
72.655 5.223888
72.660 5.453827
72.665 5.556036
72.670 5.498593
72.675 5.62924
72.680 5.584765
72.685 5.946723
72.690 6.198173
72.695 5.952072
72.700 5.864293
72.705 5.872078
72.710 6.254667
72.715 5.766375
72.720 5.294624
72.725 4.920249
72.730 5.102875
72.735 5.36039
72.740 5.475431
72.745 5.321339
72.750 5.918302
72.755 5.788917
72.760 5.805627
72.765 5.60361
72.770 5.248738
72.775 5.064881
72.780 4.930202
72.785 4.26857
72.790 4.255664
72.795 4.210991
72.800 4.154808
72.805 4.03225
72.810 3.865121
72.815 3.844439
72.820 4.282781
72.825 4.519254
72.830 4.889691
72.835 5.303512
72.840 5.457752
72.845 5.776968
72.850 5.685646
72.855 5.748981
72.860 5.615374
72.865 5.316654
72.870 5.230855
72.875 5.087807
72.880 4.681517
72.885 4.778743
72.890 4.877393
72.895 4.975864
72.900 4.954789
72.905 4.916794
72.910 5.181968
72.915 5.572596
72.920 5.653132
72.925 5.599558
72.930 5.564611
72.935 5.549027
72.940 5.523119
72.945 5.419084
72.950 5.348131
72.955 5.194927
72.960 5.105479
72.965 4.891276
72.970 4.935817
72.975 5.008894
72.980 4.819175
72.985 4.909702
72.990 4.701281
72.995 4.760634
73.000 4.926703
73.005 4.953584
73.010 5.154667
73.015 5.094715
73.020 5.094086
73.025 5.133193
73.030 4.958269
73.035 5.071549
73.040 4.955476
73.045 4.805831
73.050 4.888382
73.055 4.947735
73.060 5.109782
73.065 5.281334
73.070 5.133796
73.075 5.096341
73.080 5.323463
73.085 5.16086
73.090 4.992007
73.095 4.745351
73.100 4.658559
73.105 5.104434
73.110 4.972286
73.115 5.243567
73.120 5.626153
73.125 5.465165
73.130 5.584325
73.135 5.570647
73.140 5.125175
73.145 5.107473
73.150 4.926649
73.155 4.565235
73.160 4.926894
73.165 4.702029
73.170 4.998068
73.175 5.266897
73.180 5.197034
73.185 5.280472
73.190 5.297086
73.195 5.40582
73.200 5.456054
73.205 5.361498
73.210 5.163641
73.215 4.980842
73.220 4.936451
73.225 5.268878
73.230 4.915012
73.235 4.79355
73.240 4.585555
73.245 4.636964
73.250 4.897062
73.255 4.653585
73.260 4.583539
73.265 5.017781
73.270 4.91641
73.275 4.814909
73.280 4.89464
73.285 4.95563
73.290 5.14253
73.295 4.889278
73.300 4.653899
73.305 4.649571
73.310 4.662542
73.315 4.326603
73.320 4.573316
73.325 4.755228
73.330 4.762551
73.335 5.000219
73.340 5.139625
73.345 5.259017
73.350 5.084287
73.355 4.897199
73.360 4.776781
73.365 5.006152
73.370 4.917898
73.375 4.933561
73.380 5.068348
73.385 4.939626
73.390 4.849196
73.395 5.381661
73.400 5.226419
73.405 5.083726
73.410 5.395239
73.415 5.3598
73.420 5.360756
73.425 5.055532
73.430 4.759461
73.435 4.746
73.440 4.735117
73.445 4.557347
73.450 4.487015
73.455 4.610121
73.460 4.583065
73.465 4.293195
73.470 4.342697
73.475 4.669291
73.480 4.740545
73.485 4.954048
73.490 5.046932
73.495 5.31534
73.500 5.358806
73.505 5.223383
73.510 4.995333
73.515 5.010609
73.520 5.206882
73.525 5.059165
73.530 5.358022
73.535 5.323433
73.540 5.331611
73.545 5.135018
73.550 5.013771
73.555 4.984523
73.560 4.658701
73.565 4.462961
73.570 4.306141
73.575 4.503804
73.580 4.579074
73.585 4.585734
73.590 4.660231
73.595 5.00963
73.600 5.036116
73.605 5.207072
73.610 5.018967
73.615 5.227558
73.620 5.094205
73.625 5.044256
73.630 5.384152
73.635 5.250383
73.640 5.083874
73.645 4.849307
73.650 4.891815
73.655 5.100331
73.660 5.055801
73.665 4.854408
73.670 5.163993
73.675 4.987185
73.680 5.317655
73.685 5.346915
73.690 5.233465
73.695 5.228903
73.700 4.968062
73.705 5.011423
73.710 5.007699
73.715 4.720663
73.720 4.619488
73.725 4.387131
73.730 4.557542
73.735 4.866446
73.740 4.839028
73.745 4.931098
73.750 4.810876
73.755 4.980527
73.760 4.980187
73.765 4.935852
73.770 4.786546
73.775 5.247263
73.780 5.783888
73.785 5.822863
73.790 5.906917
73.795 6.193588
73.800 5.997386
73.805 5.765975
73.810 5.498466
73.815 5.308209
73.820 5.322564
73.825 5.15038
73.830 4.798679
73.835 5.014394
73.840 4.941786
73.845 4.793346
73.850 4.731429
73.855 4.569177
73.860 4.822757
73.865 4.738838
73.870 4.619972
73.875 4.86366
73.880 4.853217
73.885 4.892608
73.890 4.522238
73.895 4.297084
73.900 4.376531
73.905 4.240544
73.910 4.162883
73.915 4.127129
73.920 4.20592
73.925 4.547038
73.930 4.3864
73.935 4.68744
73.940 4.977929
73.945 4.725397
73.950 4.952163
73.955 5.357231
73.960 5.637964
73.965 5.753103
73.970 5.548095
73.975 5.478128
73.980 5.610953
73.985 5.425955
73.990 5.243922
73.995 5.174083
74.000 5.346083
74.005 5.151911
74.010 5.056435
74.015 4.711559
74.020 4.575734
74.025 4.235249
74.030 3.801165
74.035 3.739432
74.040 4.243732
74.045 4.693259
74.050 4.809952
74.055 4.803411
74.060 4.963928
74.065 5.160618
74.070 5.091984
74.075 4.795415
74.080 4.920265
74.085 5.462646
74.090 5.896301
74.095 5.995157
74.100 6.163459
74.105 6.074607
74.110 6.26805
74.115 6.285254
74.120 5.768889
74.125 5.525147
74.130 5.377124
74.135 5.135617
74.140 5.235816
74.145 4.912356
74.150 4.663243
74.155 4.82746
74.160 4.873326
74.165 4.762824
74.170 4.852876
74.175 4.824085
74.180 5.159575
74.185 5.487774
74.190 5.249152
74.195 5.256917
74.200 5.308316
74.205 5.33797
74.210 4.970521
74.215 4.511144
74.220 4.076389
74.225 4.220129
74.230 4.256044
74.235 4.257975
74.240 4.083299
74.245 4.310055
74.250 4.630362
74.255 4.618495
74.260 4.604199
74.265 4.584332
74.270 4.820748
74.275 4.877326
74.280 5.033187
74.285 5.142281
74.290 5.605813
74.295 5.688074
74.300 5.624418
74.305 5.628283
74.310 5.612481
74.315 5.408659
74.320 5.217182
74.325 4.90847
74.330 4.89097
74.335 5.033058
74.340 5.144035
74.345 5.446122
74.350 5.522758
74.355 5.577685
74.360 5.569456
74.365 5.492692
74.370 5.108111
74.375 4.975163
74.380 4.889536
74.385 4.777081
74.390 4.715604
74.395 4.656278
74.400 4.682065
74.405 4.566153
74.410 4.394605
74.415 4.30748
74.420 4.233584
74.425 3.983915
74.430 3.95541
74.435 4.028188
74.440 4.29929
74.445 4.440107
74.450 4.652098
74.455 4.546628
74.460 4.725347
74.465 5.094427
74.470 5.271692
74.475 5.084141
74.480 4.842052
74.485 4.682329
74.490 5.039076
74.495 5.103868
74.500 5.077127
74.505 4.832066
74.510 4.675967
74.515 4.851461
74.520 4.950224
74.525 5.093339
74.530 5.000256
74.535 4.85506
74.540 4.955384
74.545 4.870261
74.550 4.731786
74.555 4.462008
74.560 4.21965
74.565 4.241831
74.570 4.565381
74.575 4.691785
74.580 4.656599
74.585 4.892431
74.590 5.307626
74.595 5.163602
74.600 5.25101
74.605 5.412988
74.610 5.503449
74.615 5.64372
74.620 5.530557
74.625 5.30027
74.630 5.370819
74.635 4.863756
74.640 4.316147
74.645 4.108999
74.650 3.776991
74.655 3.425483
74.660 3.411974
74.665 3.368283
74.670 3.549051
74.675 3.839942
74.680 4.398921
74.685 4.787552
74.690 5.241125
74.695 5.421928
74.700 5.494703
74.705 5.736429
74.710 5.710715
74.715 5.408136
74.720 5.087398
74.725 5.250118
74.730 5.506002
74.735 5.281617
74.740 5.159933
74.745 5.092523
74.750 5.172294
74.755 5.424415
74.760 5.318472
74.765 5.266065
74.770 5.283283
74.775 5.231618
74.780 5.117109
74.785 5.103161
74.790 4.779551
74.795 4.462296
74.800 4.679135
74.805 4.646221
74.810 4.591847
74.815 4.687439
74.820 4.450057
74.825 4.303786
74.830 4.462569
74.835 4.341857
74.840 4.405571
74.845 4.690226
74.850 5.081924
74.855 5.326286
74.860 5.404052
74.865 5.318712
74.870 5.490423
74.875 5.39211
74.880 5.098804
74.885 5.243592
74.890 5.542512
74.895 5.638369
74.900 5.619228
74.905 5.516803
74.910 5.413832
74.915 5.224738
74.920 5.021636
74.925 5.184265
74.930 5.341706
74.935 5.259552
74.940 5.405535
74.945 5.47159
74.950 5.211237
74.955 4.854484
74.960 4.440242
74.965 4.377984
74.970 4.51443
74.975 4.475607
74.980 4.83537
74.985 4.989792
74.990 5.016457
74.995 5.000593
75.000 4.884954
