!@!!GADDS PLOTSO FILE: Chi integration type
!@!!Title/SampleName: map-0
!@!!Comment: ?
!@!!User: Bruker Instrument Administrator
!@!!Site: University of Illinois Chicago
!@!!Frame: map-0_01_000.gfrm
!@!!Wavelengths    1.54184   1.54056   1.54439
!@!!Frame angles: 2Theta: 65.000 Omega: 50.000 Phi: 0.000 Chi: 90.000
!@!!Integration range: 2Theta: 55.000 to 75.000  Gamma: -105.000 to -75.000
!@!!Integration method: bin normalized
!@!N
!@!SS
!@!M
!@!L 0.0 0.0 0.0 0.0
!@!XDegrees
!@!YCounts
55.000 4.00041
55.005 4.185975
55.010 4.095153
55.015 4.068739
55.020 4.284683
55.025 4.33964
55.030 4.255592
55.035 4.195969
55.040 4.305452
55.045 4.306563
55.050 4.279879
55.055 4.342978
55.060 4.716345
55.065 4.949999
55.070 4.928505
55.075 5.086776
55.080 4.943865
55.085 4.859176
55.090 4.452359
55.095 4.42429
55.100 4.504847
55.105 4.511317
55.110 4.489956
55.115 4.822345
55.120 4.683664
55.125 4.727491
55.130 4.411622
55.135 4.614542
55.140 4.691792
55.145 4.834647
55.150 4.52069
55.155 4.769173
55.160 4.985313
55.165 5.454376
55.170 5.172749
55.175 4.852685
55.180 4.823159
55.185 4.756956
55.190 4.477315
55.195 4.523126
55.200 4.078088
55.205 4.226143
55.210 4.13375
55.215 4.31207
55.220 4.664864
55.225 4.655815
55.230 4.594647
55.235 4.790173
55.240 4.860489
55.245 4.965643
55.250 4.592849
55.255 4.460743
55.260 4.640052
55.265 4.69744
55.270 4.890594
55.275 4.699437
55.280 4.70776
55.285 4.557939
55.290 4.436379
55.295 4.234465
55.300 3.921646
55.305 3.587616
55.310 3.67889
55.315 3.877641
55.320 3.992884
55.325 3.969509
55.330 4.062666
55.335 4.11166
55.340 4.393427
55.345 4.377757
55.350 4.353027
55.355 4.440971
55.360 4.511484
55.365 4.213009
55.370 4.367912
55.375 4.341581
55.380 4.52863
55.385 4.837231
55.390 4.81796
55.395 4.761226
55.400 4.894379
55.405 4.706275
55.410 4.639113
55.415 4.620883
55.420 4.130877
55.425 4.186029
55.430 4.496428
55.435 4.580406
55.440 4.749994
55.445 4.542635
55.450 4.357611
55.455 4.523316
55.460 4.552198
55.465 4.740477
55.470 4.630017
55.475 4.491648
55.480 4.577485
55.485 4.959591
55.490 5.172697
55.495 5.114043
55.500 4.906669
55.505 5.224384
55.510 5.31534
55.515 5.105233
55.520 4.611618
55.525 4.488552
55.530 4.675331
55.535 4.562555
55.540 4.393502
55.545 4.465382
55.550 4.477737
55.555 4.439878
55.560 4.100074
55.565 3.58851
55.570 3.488518
55.575 3.42581
55.580 3.328823
55.585 3.646222
55.590 3.725354
55.595 4.260398
55.600 4.696931
55.605 4.788237
55.610 4.911104
55.615 4.990116
55.620 5.085504
55.625 5.373986
55.630 5.221612
55.635 4.991446
55.640 5.056749
55.645 5.132294
55.650 5.155661
55.655 5.064904
55.660 4.70754
55.665 4.611058
55.670 4.742587
55.675 4.805903
55.680 4.823472
55.685 4.742965
55.690 4.905716
55.695 4.940117
55.700 4.965553
55.705 4.712976
55.710 4.404427
55.715 4.141451
55.720 4.442427
55.725 4.898479
55.730 5.171153
55.735 5.443095
55.740 5.910062
55.745 6.144366
55.750 6.180237
55.755 5.997563
55.760 5.715339
55.765 5.790308
55.770 5.686792
55.775 5.342595
55.780 5.276384
55.785 5.275999
55.790 5.154092
55.795 4.697839
55.800 4.315679
55.805 4.27218
55.810 4.22503
55.815 4.229689
55.820 4.268838
55.825 4.179201
55.830 4.688864
55.835 4.892269
55.840 4.979305
55.845 5.201416
55.850 5.218517
55.855 5.220271
55.860 5.174681
55.865 5.074465
55.870 5.022669
55.875 4.882932
55.880 4.578439
55.885 4.642272
55.890 4.632574
55.895 4.729739
55.900 4.796271
55.905 4.94256
55.910 5.19249
55.915 5.415434
55.920 5.308201
55.925 5.029014
55.930 5.236086
55.935 5.146874
55.940 5.218944
55.945 5.345111
55.950 5.326462
55.955 5.439382
55.960 5.726923
55.965 5.829206
55.970 5.535857
55.975 5.052763
55.980 4.680596
55.985 4.69866
55.990 4.672967
55.995 4.37338
56.000 3.99462
56.005 4.279261
56.010 4.373672
56.015 4.437232
56.020 4.232392
56.025 3.964509
56.030 3.932245
56.035 3.850864
56.040 3.638294
56.045 3.84725
56.050 4.066014
56.055 4.214714
56.060 4.37864
56.065 4.038533
56.070 3.928793
56.075 3.709142
56.080 3.406064
56.085 3.483254
56.090 3.485424
56.095 3.797411
56.100 4.376064
56.105 4.615376
56.110 5.1504
56.115 5.346004
56.120 5.204084
56.125 5.289457
56.130 5.481422
56.135 5.51533
56.140 5.396235
56.145 5.218768
56.150 5.311336
56.155 5.306139
56.160 5.129342
56.165 4.680181
56.170 4.619478
56.175 4.398446
56.180 4.189623
56.185 4.413566
56.190 4.523287
56.195 4.553719
56.200 4.661564
56.205 4.843871
56.210 5.112403
56.215 4.902719
56.220 4.414342
56.225 4.493995
56.230 4.706458
56.235 4.757621
56.240 4.476597
56.245 4.454169
56.250 4.83766
56.255 5.110506
56.260 4.988511
56.265 5.122913
56.270 5.082513
56.275 5.36757
56.280 5.439127
56.285 5.180808
56.290 4.967126
56.295 4.909964
56.300 4.473638
56.305 4.445874
56.310 4.26478
56.315 4.080523
56.320 3.940225
56.325 3.874859
56.330 3.717925
56.335 3.572653
56.340 3.569634
56.345 3.572902
56.350 3.946357
56.355 4.288171
56.360 4.373506
56.365 4.676276
56.370 4.774329
56.375 5.016181
56.380 5.110759
56.385 5.09651
56.390 5.243382
56.395 5.375398
56.400 5.344383
56.405 5.439984
56.410 5.438067
56.415 5.450466
56.420 5.295232
56.425 5.482238
56.430 5.315268
56.435 5.329439
56.440 5.384861
56.445 5.196506
56.450 5.047893
56.455 5.09631
56.460 5.147089
56.465 5.203486
56.470 5.044513
56.475 4.890751
56.480 5.056215
56.485 5.199227
56.490 4.929518
56.495 4.749393
56.500 4.666285
56.505 5.141256
56.510 5.301223
56.515 5.102688
56.520 5.057415
56.525 4.83586
56.530 4.862769
56.535 5.004483
56.540 4.676643
56.545 4.324947
56.550 4.355357
56.555 4.243941
56.560 4.411633
56.565 4.559062
56.570 4.664941
56.575 4.85156
56.580 5.394218
56.585 5.837349
56.590 5.832662
56.595 5.786619
56.600 5.692853
56.605 5.537447
56.610 5.516036
56.615 5.251896
56.620 5.066218
56.625 5.439273
56.630 5.168964
56.635 5.033765
56.640 5.299532
56.645 5.409147
56.650 5.293722
56.655 5.117568
56.660 4.925338
56.665 4.876649
56.670 4.510005
56.675 4.400891
56.680 4.199075
56.685 4.198558
56.690 4.127224
56.695 4.179408
56.700 4.298696
56.705 4.455947
56.710 4.293732
56.715 4.206082
56.720 4.177768
56.725 4.49579
56.730 4.490543
56.735 4.42567
56.740 4.444556
56.745 4.367507
56.750 4.727014
56.755 4.646384
56.760 4.433436
56.765 4.41989
56.770 4.444208
56.775 4.417042
56.780 4.446927
56.785 4.457892
56.790 4.410547
56.795 4.448981
56.800 4.679497
56.805 4.692895
56.810 4.548802
56.815 4.596486
56.820 4.492425
56.825 4.520429
56.830 4.584404
56.835 4.505833
56.840 4.827986
56.845 5.068025
56.850 5.291933
56.855 5.490102
56.860 5.412101
56.865 5.366779
56.870 5.539061
56.875 5.459887
56.880 5.582259
56.885 5.425147
56.890 5.277141
56.895 5.342276
56.900 5.220065
56.905 5.174398
56.910 5.185022
56.915 4.970341
56.920 4.626162
56.925 4.775875
56.930 5.124961
56.935 5.110282
56.940 4.849744
56.945 5.023736
56.950 5.467422
56.955 5.810627
56.960 5.793992
56.965 5.497689
56.970 5.527778
56.975 5.527513
56.980 5.227471
56.985 5.396027
56.990 5.613664
56.995 5.558907
57.000 5.428042
57.005 5.438841
57.010 5.821939
57.015 5.557636
57.020 4.976304
57.025 4.748497
57.030 5.032194
57.035 5.342025
57.040 5.34678
57.045 5.244161
57.050 5.679477
57.055 5.888272
57.060 5.511676
57.065 5.495785
57.070 5.459081
57.075 5.366655
57.080 5.123785
57.085 4.706992
57.090 4.644309
57.095 4.825303
57.100 4.737514
57.105 4.474351
57.110 4.632062
57.115 5.063931
57.120 5.177275
57.125 5.237621
57.130 5.25937
57.135 5.346205
57.140 5.396542
57.145 5.386466
57.150 5.349212
57.155 5.227674
57.160 4.975494
57.165 4.684303
57.170 4.516196
57.175 4.552896
57.180 4.253252
57.185 4.015025
57.190 4.271632
57.195 4.632918
57.200 5.010774
57.205 5.190289
57.210 5.106844
57.215 5.208476
57.220 5.526032
57.225 5.149419
57.230 5.01721
57.235 4.947004
57.240 4.854743
57.245 4.98687
57.250 5.043713
57.255 4.852921
57.260 4.871859
57.265 4.531194
57.270 4.453728
57.275 4.596168
57.280 4.494485
57.285 4.496271
57.290 4.728023
57.295 4.607009
57.300 4.705231
57.305 4.390612
57.310 4.336374
57.315 4.385469
57.320 4.642006
57.325 4.785903
57.330 5.167153
57.335 5.409629
57.340 5.58116
57.345 5.812063
57.350 5.650009
57.355 5.250132
57.360 5.105251
57.365 4.881031
57.370 5.002365
57.375 4.937309
57.380 4.680699
57.385 4.519155
57.390 4.442051
57.395 4.409643
57.400 4.198848
57.405 4.344909
57.410 4.700876
57.415 5.069259
57.420 5.275876
57.425 4.981807
57.430 4.955777
57.435 5.018705
57.440 4.562939
57.445 4.28139
57.450 4.118432
57.455 4.111717
57.460 4.373113
57.465 4.410342
57.470 4.410593
57.475 4.323249
57.480 4.222374
57.485 4.140606
57.490 4.189944
57.495 4.260442
57.500 4.633049
57.505 4.786465
57.510 4.718262
57.515 4.557623
57.520 4.711663
57.525 4.788606
57.530 4.62312
57.535 4.426309
57.540 4.465938
57.545 4.915402
57.550 5.214909
57.555 5.22531
57.560 5.203276
57.565 5.243798
57.570 5.4672
57.575 5.539917
57.580 5.632657
57.585 5.730693
57.590 5.654349
57.595 5.662188
57.600 5.836593
57.605 5.859546
57.610 5.950038
57.615 6.065946
57.620 6.046766
57.625 5.922373
57.630 5.905763
57.635 5.583534
57.640 5.603897
57.645 5.236944
57.650 4.763262
57.655 4.829888
57.660 4.940725
57.665 5.083325
57.670 5.191907
57.675 5.144277
57.680 5.317633
57.685 5.217445
57.690 4.933156
57.695 4.738485
57.700 4.77594
57.705 4.542068
57.710 4.501734
57.715 4.755177
57.720 4.898216
57.725 5.142104
57.730 5.124836
57.735 5.21184
57.740 5.15803
57.745 5.000155
57.750 4.851815
57.755 4.94531
57.760 4.734092
57.765 4.917996
57.770 5.086174
57.775 5.391055
57.780 5.676613
57.785 5.729313
57.790 5.882691
57.795 6.155592
57.800 5.866098
57.805 5.336603
57.810 5.212965
57.815 4.92697
57.820 4.781388
57.825 4.874029
57.830 4.683331
57.835 4.796905
57.840 5.218657
57.845 5.124952
57.850 5.290587
57.855 5.169099
57.860 5.089289
57.865 5.124203
57.870 4.945503
57.875 4.569791
57.880 4.432146
57.885 4.390374
57.890 4.342956
57.895 4.245777
57.900 4.461969
57.905 4.517441
57.910 4.876771
57.915 4.973279
57.920 4.695369
57.925 4.515851
57.930 4.478242
57.935 4.637315
57.940 4.795061
57.945 4.642914
57.950 4.614177
57.955 4.622008
57.960 4.772641
57.965 4.597865
57.970 4.523436
57.975 4.525947
57.980 4.18242
57.985 4.355639
57.990 4.565792
57.995 4.445638
58.000 4.589942
58.005 4.255633
58.010 4.194554
58.015 4.476812
58.020 4.298542
58.025 4.31804
58.030 4.410766
58.035 4.274508
58.040 4.471251
58.045 4.638161
58.050 4.842562
58.055 5.182024
58.060 5.270172
58.065 5.046471
58.070 4.930438
58.075 4.736555
58.080 4.438552
58.085 4.559209
58.090 4.548794
58.095 4.450944
58.100 4.66189
58.105 4.919797
58.110 4.95331
58.115 4.90975
58.120 4.730538
58.125 4.588093
58.130 4.823918
58.135 5.11591
58.140 5.090561
58.145 5.360959
58.150 5.384822
58.155 5.411173
58.160 5.393502
58.165 5.243052
58.170 4.900832
58.175 4.830503
58.180 4.526962
58.185 4.568728
58.190 4.346628
58.195 4.212003
58.200 4.263549
58.205 4.435558
58.210 4.652291
58.215 4.777571
58.220 4.869981
58.225 4.996475
58.230 4.978776
58.235 5.078736
58.240 5.011218
58.245 4.594742
58.250 4.501326
58.255 4.738381
58.260 5.341734
58.265 5.301722
58.270 5.112444
58.275 5.079698
58.280 5.16308
58.285 5.392592
58.290 5.137736
58.295 4.96791
58.300 5.445586
58.305 5.571024
58.310 5.783412
58.315 6.149167
58.320 5.933813
58.325 5.884524
58.330 5.698823
58.335 5.459146
58.340 5.313639
58.345 5.047357
58.350 4.992365
58.355 4.842452
58.360 4.966684
58.365 4.962504
58.370 4.771303
58.375 4.805716
58.380 4.829211
58.385 4.406301
58.390 4.682377
58.395 4.740996
58.400 4.744331
58.405 5.12422
58.410 5.099887
58.415 5.199253
58.420 5.500422
58.425 5.178843
58.430 5.293508
58.435 5.374826
58.440 5.267692
58.445 5.583797
58.450 5.713164
58.455 6.00839
58.460 6.042771
58.465 5.787469
58.470 5.518239
58.475 5.410584
58.480 5.152511
58.485 5.28512
58.490 5.15415
58.495 4.988295
58.500 5.1483
58.505 5.288336
58.510 5.358809
58.515 5.251557
58.520 5.579855
58.525 5.787709
58.530 6.222514
58.535 6.235898
58.540 6.215368
58.545 6.516074
58.550 6.640529
58.555 6.391806
58.560 6.312995
58.565 5.885179
58.570 5.942743
58.575 5.911948
58.580 5.859354
58.585 6.095315
58.590 5.945095
58.595 5.930136
58.600 6.44525
58.605 6.557291
58.610 6.87287
58.615 7.189127
58.620 6.855547
58.625 6.864513
58.630 6.620221
58.635 6.55018
58.640 6.578053
58.645 6.498082
58.650 6.589507
58.655 6.864754
58.660 7.430729
58.665 8.192764
58.670 8.500454
58.675 8.869871
58.680 8.804727
58.685 8.537587
58.690 8.60636
58.695 8.366841
58.700 8.54508
58.705 8.565522
58.710 8.520947
58.715 8.79415
58.720 8.865665
58.725 8.968978
58.730 9.151218
58.735 9.241588
58.740 9.41928
58.745 9.318635
58.750 9.622391
58.755 9.664027
58.760 9.759469
58.765 9.977549
58.770 9.954222
58.775 9.804486
58.780 9.980911
58.785 9.84932
58.790 10.528279
58.795 10.98896
58.800 10.828759
58.805 10.543888
58.810 10.691985
58.815 10.765072
58.820 10.391447
58.825 10.035117
58.830 9.906447
58.835 10.035175
58.840 10.137167
58.845 9.77647
58.850 9.912767
58.855 9.850517
58.860 9.98315
58.865 10.023099
58.870 10.112482
58.875 10.086449
58.880 10.282236
58.885 10.684622
58.890 10.893419
58.895 11.076691
58.900 11.066155
58.905 10.923504
58.910 11.258953
58.915 10.952097
58.920 10.553131
58.925 10.813517
58.930 10.761681
58.935 10.755957
58.940 10.625374
58.945 10.783714
58.950 10.839875
58.955 10.696937
58.960 10.361555
58.965 9.631919
58.970 9.263392
58.975 9.389416
58.980 9.262359
58.985 9.467266
58.990 9.657183
58.995 9.951218
59.000 10.185745
59.005 9.774765
59.010 9.283064
59.015 9.209482
59.020 9.140109
59.025 9.015382
59.030 9.067005
59.035 8.901152
59.040 8.94315
59.045 9.209375
59.050 9.165919
59.055 8.938041
59.060 8.505313
59.065 8.279367
59.070 8.679656
59.075 9.043106
59.080 8.673516
59.085 8.871126
59.090 8.846602
59.095 9.11952
59.100 9.469189
59.105 9.285186
59.110 9.102017
59.115 8.735082
59.120 8.154301
59.125 8.000105
59.130 7.998354
59.135 7.736595
59.140 7.611673
59.145 7.355388
59.150 7.494382
59.155 7.089878
59.160 7.01011
59.165 6.635073
59.170 6.5833
59.175 6.66323
59.180 6.884195
59.185 7.40548
59.190 8.033813
59.195 8.199883
59.200 8.060894
59.205 7.981387
59.210 7.791817
59.215 7.250083
59.220 6.804617
59.225 6.397917
59.230 6.875828
59.235 6.920211
59.240 7.023349
59.245 7.287
59.250 7.445974
59.255 7.76494
59.260 7.980686
59.265 7.847766
59.270 7.979299
59.275 8.022539
59.280 8.119417
59.285 8.03459
59.290 8.11056
59.295 8.104353
59.300 8.064426
59.305 8.234284
59.310 8.349754
59.315 8.1427
59.320 8.219162
59.325 8.328241
59.330 8.258729
59.335 8.561062
59.340 8.120657
59.345 8.138565
59.350 8.383242
59.355 8.502894
59.360 8.327154
59.365 8.071943
59.370 8.084542
59.375 8.230448
59.380 8.016433
59.385 8.285012
59.390 8.616709
59.395 8.571728
59.400 8.436256
59.405 7.982136
59.410 8.28425
59.415 8.58997
59.420 8.042549
59.425 7.70355
59.430 7.59338
59.435 7.742531
59.440 7.989573
59.445 7.895368
59.450 8.00824
59.455 8.06529
59.460 8.272177
59.465 8.722925
59.470 8.83657
59.475 8.987927
59.480 9.226308
59.485 9.562525
59.490 9.773412
59.495 9.820172
59.500 9.529768
59.505 9.362396
59.510 9.162932
59.515 9.026803
59.520 8.82003
59.525 8.706993
59.530 8.553795
59.535 8.950483
59.540 9.204354
59.545 9.496208
59.550 9.448125
59.555 9.552115
59.560 10.04082
59.565 10.199461
59.570 10.433969
59.575 10.55838
59.580 10.507081
59.585 10.707542
59.590 10.995999
59.595 10.741935
59.600 10.487687
59.605 9.710313
59.610 9.563578
59.615 9.092471
59.620 8.835923
59.625 8.35454
59.630 8.499527
59.635 8.364396
59.640 8.832198
59.645 8.695863
59.650 8.583629
59.655 8.48028
59.660 8.544358
59.665 8.29994
59.670 8.307461
59.675 7.915706
59.680 8.138804
59.685 8.430134
59.690 8.406655
59.695 7.930485
59.700 8.161177
59.705 8.140646
59.710 8.097369
59.715 7.886546
59.720 8.022027
59.725 8.233611
59.730 8.36332
59.735 8.074711
59.740 8.069727
59.745 7.982841
59.750 7.825734
59.755 7.505594
59.760 7.379012
59.765 7.288306
59.770 7.002968
59.775 6.63984
59.780 6.509188
59.785 6.296148
59.790 5.904177
59.795 5.627369
59.800 5.383336
59.805 5.656246
59.810 5.842639
59.815 6.009983
59.820 6.174036
59.825 6.449551
59.830 6.476601
59.835 6.671834
59.840 6.706994
59.845 6.893403
59.850 6.804698
59.855 6.558017
59.860 6.308453
59.865 6.122457
59.870 6.242184
59.875 6.056756
59.880 6.010579
59.885 6.074941
59.890 6.435945
59.895 6.513347
59.900 6.448606
59.905 6.382593
59.910 6.081813
59.915 5.990066
59.920 5.766311
59.925 5.458243
59.930 5.64649
59.935 5.602944
59.940 5.079162
59.945 4.998497
59.950 5.112228
59.955 5.304349
59.960 5.49115
59.965 5.296597
59.970 5.590757
59.975 5.802902
59.980 5.832905
59.985 5.55642
59.990 5.697228
59.995 5.575634
60.000 6.028332
60.005 5.944798
60.010 6.282433
60.015 6.653173
60.020 6.983515
60.025 6.757071
60.030 6.630889
60.035 6.095984
60.040 6.074806
60.045 5.951819
60.050 5.63991
60.055 5.60352
60.060 5.600909
60.065 5.470192
60.070 5.83315
60.075 5.653821
60.080 5.333647
60.085 5.406462
60.090 5.110267
60.095 5.172779
60.100 5.474609
60.105 5.094959
60.110 5.096317
60.115 5.516303
60.120 5.581883
60.125 5.808322
60.130 5.564355
60.135 5.067669
60.140 4.731502
60.145 4.673676
60.150 4.551135
60.155 4.357337
60.160 4.389147
60.165 4.712555
60.170 4.991133
60.175 5.283831
60.180 5.436584
60.185 5.646483
60.190 5.670355
60.195 5.60632
60.200 5.616791
60.205 5.550265
60.210 5.671371
60.215 5.582257
60.220 5.365607
60.225 5.387194
60.230 5.329234
60.235 5.248742
60.240 5.215128
60.245 5.084648
60.250 4.950312
60.255 4.79626
60.260 4.78202
60.265 4.985132
60.270 5.013519
60.275 4.985217
60.280 5.076474
60.285 4.973951
60.290 4.879277
60.295 4.866917
60.300 4.892553
60.305 4.881355
60.310 4.949141
60.315 5.086924
60.320 5.109233
60.325 5.40501
60.330 5.137195
60.335 5.029076
60.340 5.187016
60.345 5.323874
60.350 5.266778
60.355 5.72272
60.360 6.068852
60.365 6.709857
60.370 6.712181
60.375 6.489985
60.380 6.316566
60.385 6.525245
60.390 6.080739
60.395 5.80464
60.400 5.395555
60.405 5.651919
60.410 5.660024
60.415 5.615293
60.420 5.499962
60.425 5.602425
60.430 5.850298
60.435 6.051682
60.440 5.679457
60.445 5.709717
60.450 5.794508
60.455 5.916291
60.460 5.853255
60.465 5.470522
60.470 5.459805
60.475 5.741757
60.480 5.862216
60.485 5.924131
60.490 5.629941
60.495 5.725476
60.500 5.730354
60.505 5.491686
60.510 5.030878
60.515 4.995314
60.520 4.932069
60.525 4.827239
60.530 4.393897
60.535 4.442922
60.540 4.706961
60.545 5.175271
60.550 5.207982
60.555 5.352217
60.560 5.566645
60.565 5.839877
60.570 5.786642
60.575 5.949944
60.580 6.017778
60.585 5.929995
60.590 5.691929
60.595 5.547941
60.600 5.444499
60.605 5.617657
60.610 5.493656
60.615 5.200431
60.620 5.606438
60.625 6.147601
60.630 6.125641
60.635 5.954239
60.640 5.639228
60.645 5.513968
60.650 5.727039
60.655 5.416702
60.660 5.101968
60.665 5.407783
60.670 5.657588
60.675 5.694996
60.680 5.561021
60.685 5.20142
60.690 5.177983
60.695 5.180626
60.700 4.972585
60.705 5.077838
60.710 4.98912
60.715 4.996724
60.720 5.114598
60.725 5.014782
60.730 4.831437
60.735 4.716814
60.740 4.656131
60.745 4.984334
60.750 4.891762
60.755 4.812778
60.760 4.866669
60.765 4.922061
60.770 4.799614
60.775 4.699309
60.780 4.603292
60.785 4.58741
60.790 4.519304
60.795 4.448318
60.800 4.47232
60.805 4.754195
60.810 4.901997
60.815 5.123612
60.820 5.314334
60.825 5.298805
60.830 5.251825
60.835 5.115091
60.840 4.545713
60.845 4.398792
60.850 4.302805
60.855 4.395439
60.860 4.562267
60.865 4.521641
60.870 4.724511
60.875 5.044362
60.880 5.196835
60.885 5.125626
60.890 5.203424
60.895 5.328798
60.900 5.584086
60.905 5.330916
60.910 5.148763
60.915 4.782669
60.920 4.634966
60.925 4.624316
60.930 4.672197
60.935 4.476692
60.940 4.715857
60.945 4.732581
60.950 4.818984
60.955 4.657662
60.960 4.470612
60.965 4.434711
60.970 4.914231
60.975 5.243748
60.980 5.438726
60.985 5.317275
60.990 5.537416
60.995 5.753073
61.000 5.754556
61.005 5.756856
61.010 5.752717
61.015 5.980863
61.020 6.323484
61.025 6.255231
61.030 5.934607
61.035 5.590524
61.040 5.142352
61.045 5.315985
61.050 4.996052
61.055 4.95021
61.060 4.927215
61.065 5.042974
61.070 5.180155
61.075 5.463147
61.080 5.498737
61.085 5.716788
61.090 5.346372
61.095 5.266588
61.100 5.225185
61.105 5.197461
61.110 4.994228
61.115 5.12575
61.120 5.036396
61.125 5.381546
61.130 5.422068
61.135 5.321333
61.140 5.559114
61.145 5.522112
61.150 5.091531
61.155 5.198358
61.160 5.341783
61.165 5.577739
61.170 5.992854
61.175 6.094482
61.180 5.839263
61.185 5.758007
61.190 5.645433
61.195 5.79276
61.200 5.766274
61.205 5.295856
61.210 5.137109
61.215 5.481782
61.220 5.613313
61.225 5.62683
61.230 5.375827
61.235 5.421474
61.240 5.465658
61.245 5.24373
61.250 5.164298
61.255 5.388132
61.260 5.434442
61.265 5.33054
61.270 5.410503
61.275 5.695696
61.280 5.771429
61.285 5.668906
61.290 5.618148
61.295 5.708714
61.300 5.884781
61.305 5.797219
61.310 5.438376
61.315 5.574311
61.320 5.871669
61.325 5.611078
61.330 5.326842
61.335 5.236261
61.340 5.074708
61.345 5.168927
61.350 5.218349
61.355 5.209959
61.360 5.159621
61.365 5.142672
61.370 5.073985
61.375 5.057785
61.380 5.279207
61.385 5.18521
61.390 4.990622
61.395 5.30369
61.400 5.370834
61.405 5.431728
61.410 5.377722
61.415 5.614739
61.420 5.872759
61.425 6.049427
61.430 6.071303
61.435 6.074354
61.440 6.033536
61.445 6.046974
61.450 5.667223
61.455 5.56674
61.460 5.695602
61.465 5.453121
61.470 5.417147
61.475 5.456102
61.480 5.745124
61.485 5.792505
61.490 5.440619
61.495 5.124931
61.500 5.402581
61.505 5.47219
61.510 5.38415
61.515 5.188063
61.520 5.096284
61.525 5.045501
61.530 4.73118
61.535 4.759004
61.540 4.767328
61.545 4.676363
61.550 4.979099
61.555 5.237246
61.560 5.707897
61.565 5.798236
61.570 5.511805
61.575 5.605847
61.580 5.845476
61.585 5.590349
61.590 5.201772
61.595 4.93758
61.600 4.957746
61.605 5.202249
61.610 5.099566
61.615 5.016061
61.620 5.013899
61.625 5.191365
61.630 4.904582
61.635 4.739659
61.640 4.640199
61.645 4.392082
61.650 4.250948
61.655 4.366483
61.660 4.462451
61.665 4.907994
61.670 5.139932
61.675 5.123954
61.680 5.496228
61.685 5.786352
61.690 5.793853
61.695 5.744395
61.700 5.383152
61.705 5.421216
61.710 5.292667
61.715 5.007202
61.720 4.941801
61.725 4.904479
61.730 4.920946
61.735 4.950473
61.740 4.828329
61.745 4.97066
61.750 5.204183
61.755 4.834239
61.760 4.774325
61.765 4.404439
61.770 4.849135
61.775 5.273323
61.780 5.013094
61.785 4.925303
61.790 5.209773
61.795 5.438622
61.800 5.802106
61.805 5.398945
61.810 5.105614
61.815 5.18698
61.820 4.961785
61.825 4.793644
61.830 4.501079
61.835 4.641544
61.840 4.904897
61.845 5.030263
61.850 5.20082
61.855 5.26169
61.860 5.282806
61.865 5.498992
61.870 5.291984
61.875 5.06822
61.880 5.271472
61.885 5.224938
61.890 5.287483
61.895 5.317067
61.900 5.399957
61.905 5.362407
61.910 5.300611
61.915 5.017215
61.920 4.860603
61.925 4.886072
61.930 4.952096
61.935 4.871847
61.940 5.026096
61.945 4.967059
61.950 4.999231
61.955 5.082953
61.960 5.148265
61.965 4.912231
61.970 4.795168
61.975 4.877028
61.980 5.057149
61.985 5.198265
61.990 5.106308
61.995 5.248238
62.000 5.156663
62.005 5.296319
62.010 5.296897
62.015 5.482738
62.020 5.448224
62.025 5.668968
62.030 5.466404
62.035 5.656113
62.040 5.621416
62.045 5.624235
62.050 5.641013
62.055 5.480433
62.060 5.402571
62.065 5.821821
62.070 6.112215
62.075 6.196902
62.080 6.148661
62.085 6.171512
62.090 6.533862
62.095 6.364591
62.100 5.921565
62.105 5.806851
62.110 5.765963
62.115 5.797954
62.120 5.714345
62.125 5.461837
62.130 5.875809
62.135 5.956674
62.140 5.72658
62.145 5.73943
62.150 5.683171
62.155 5.593925
62.160 5.270465
62.165 5.046748
62.170 5.107297
62.175 5.062745
62.180 5.050852
62.185 5.258539
62.190 5.591262
62.195 5.891718
62.200 6.043034
62.205 6.123104
62.210 6.251375
62.215 6.343074
62.220 5.912313
62.225 5.854534
62.230 5.938159
62.235 5.642113
62.240 5.384402
62.245 5.449737
62.250 5.046784
62.255 5.175011
62.260 5.022572
62.265 4.993332
62.270 5.346426
62.275 5.477155
62.280 5.325293
62.285 5.549949
62.290 5.747713
62.295 5.610167
62.300 5.458247
62.305 5.018016
62.310 4.686816
62.315 4.60639
62.320 4.329907
62.325 4.081561
62.330 4.32093
62.335 4.454391
62.340 4.738202
62.345 5.092194
62.350 5.332338
62.355 5.652168
62.360 5.454168
62.365 5.413146
62.370 5.747352
62.375 5.771281
62.380 5.444823
62.385 5.297152
62.390 5.362064
62.395 5.443091
62.400 5.215228
62.405 4.645039
62.410 4.469541
62.415 4.715794
62.420 4.63824
62.425 4.156687
62.430 4.280887
62.435 4.747139
62.440 5.248423
62.445 5.426773
62.450 5.249267
62.455 5.512376
62.460 5.812146
62.465 5.648662
62.470 5.467564
62.475 5.435027
62.480 5.477345
62.485 5.581018
62.490 5.682495
62.495 5.76639
62.500 6.099509
62.505 6.214868
62.510 5.852408
62.515 5.542289
62.520 5.593025
62.525 5.797068
62.530 6.009817
62.535 6.160912
62.540 5.9224
62.545 6.166779
62.550 6.370107
62.555 6.127759
62.560 5.704746
62.565 5.510911
62.570 5.430239
62.575 5.517741
62.580 5.376209
62.585 5.635241
62.590 5.609966
62.595 5.622019
62.600 5.812567
62.605 5.688157
62.610 5.941055
62.615 6.084268
62.620 5.959898
62.625 6.451202
62.630 6.491567
62.635 6.026201
62.640 5.639658
62.645 5.482978
62.650 5.400997
62.655 5.21707
62.660 4.959263
62.665 5.07065
62.670 5.414372
62.675 5.761777
62.680 5.701697
62.685 5.465416
62.690 5.462718
62.695 5.461813
62.700 5.185289
62.705 4.938689
62.710 4.911102
62.715 5.156652
62.720 5.507091
62.725 5.922846
62.730 6.300514
62.735 6.631502
62.740 6.432218
62.745 5.865735
62.750 5.302557
62.755 4.94235
62.760 4.521328
62.765 4.032913
62.770 3.815317
62.775 4.186879
62.780 4.685776
62.785 5.11788
62.790 5.327729
62.795 5.462563
62.800 5.654007
62.805 5.791241
62.810 5.996686
62.815 5.933191
62.820 5.693716
62.825 5.830034
62.830 5.883109
62.835 5.796877
62.840 5.665728
62.845 5.677435
62.850 5.765055
62.855 5.977679
62.860 5.882376
62.865 5.71541
62.870 5.839567
62.875 6.110667
62.880 6.023453
62.885 6.059241
62.890 6.057014
62.895 5.999872
62.900 6.260657
62.905 6.32786
62.910 6.285271
62.915 6.056218
62.920 5.978373
62.925 5.955743
62.930 6.149221
62.935 6.029709
62.940 5.803888
62.945 5.601983
62.950 5.831518
62.955 5.71875
62.960 5.545697
62.965 5.255722
62.970 5.156971
62.975 4.968861
62.980 4.905576
62.985 4.565888
62.990 4.499319
62.995 4.354544
63.000 4.678847
63.005 4.760788
63.010 4.993752
63.015 5.260158
63.020 5.522297
63.025 5.696268
63.030 5.705327
63.035 5.668818
63.040 5.762978
63.045 5.840437
63.050 5.80067
63.055 5.758564
63.060 5.566536
63.065 5.72877
63.070 5.515275
63.075 5.587606
63.080 5.255868
63.085 5.082258
63.090 4.963943
63.095 5.044833
63.100 5.187229
63.105 4.999145
63.110 4.810952
63.115 5.304559
63.120 5.105589
63.125 5.070825
63.130 5.22497
63.135 5.286694
63.140 5.652687
63.145 5.464291
63.150 5.145481
63.155 5.43689
63.160 5.506928
63.165 4.947843
63.170 4.615168
63.175 4.649959
63.180 4.623572
63.185 4.885584
63.190 4.962324
63.195 5.097792
63.200 5.381817
63.205 5.515504
63.210 5.649481
63.215 5.880257
63.220 5.895281
63.225 6.060216
63.230 6.135962
63.235 6.04893
63.240 6.118629
63.245 6.098582
63.250 6.136264
63.255 5.885611
63.260 5.597629
63.265 5.587577
63.270 5.756989
63.275 5.481402
63.280 5.468706
63.285 5.323635
63.290 5.221415
63.295 4.854915
63.300 4.420917
63.305 4.768662
63.310 4.886318
63.315 4.893483
63.320 5.098796
63.325 5.369101
63.330 5.822968
63.335 6.316633
63.340 6.122162
63.345 5.917535
63.350 6.087537
63.355 5.811157
63.360 5.728288
63.365 5.698368
63.370 5.330402
63.375 4.988752
63.380 5.12994
63.385 4.86484
63.390 5.132622
63.395 5.23729
63.400 5.226915
63.405 5.124575
63.410 5.321911
63.415 5.011518
63.420 4.923411
63.425 4.734308
63.430 4.583013
63.435 4.578616
63.440 4.850091
63.445 5.069397
63.450 5.366598
63.455 5.65802
63.460 5.854835
63.465 6.060582
63.470 6.325004
63.475 6.166945
63.480 6.034808
63.485 5.868932
63.490 5.596118
63.495 5.404048
63.500 5.105726
63.505 4.893642
63.510 5.050179
63.515 5.045573
63.520 5.419242
63.525 5.374457
63.530 5.316987
63.535 5.427116
63.540 5.791452
63.545 5.645477
63.550 5.676473
63.555 5.675373
63.560 6.06357
63.565 6.424972
63.570 6.370101
63.575 6.059403
63.580 6.105978
63.585 5.920453
63.590 5.774145
63.595 5.807662
63.600 5.883456
63.605 6.035461
63.610 6.066738
63.615 6.033394
63.620 6.372834
63.625 6.414637
63.630 6.308663
63.635 5.892152
63.640 5.609341
63.645 5.916258
63.650 6.145031
63.655 5.969761
63.660 5.613923
63.665 5.40508
63.670 5.606307
63.675 5.704269
63.680 5.96923
63.685 6.089333
63.690 6.306487
63.695 6.504653
63.700 6.62532
63.705 6.536807
63.710 6.90343
63.715 6.524113
63.720 6.266889
63.725 6.178001
63.730 6.046576
63.735 5.793174
63.740 5.480597
63.745 4.847026
63.750 4.686595
63.755 4.640394
63.760 4.490902
63.765 4.739915
63.770 4.799181
63.775 4.867654
63.780 5.164756
63.785 5.409888
63.790 5.564092
63.795 5.45529
63.800 5.366774
63.805 5.379951
63.810 5.601423
63.815 5.480964
63.820 5.358179
63.825 5.293316
63.830 5.530867
63.835 5.680166
63.840 6.114939
63.845 5.960959
63.850 6.063712
63.855 5.901374
63.860 5.787086
63.865 5.850812
63.870 5.546478
63.875 5.275769
63.880 5.152971
63.885 5.249562
63.890 5.316577
63.895 5.367486
63.900 5.151946
63.905 5.187629
63.910 4.988337
63.915 5.139333
63.920 4.810891
63.925 4.93948
63.930 5.0843
63.935 5.275141
63.940 5.434853
63.945 5.7373
63.950 5.90715
63.955 6.145982
63.960 6.34322
63.965 5.992429
63.970 6.033676
63.975 6.078844
63.980 5.881577
63.985 6.029664
63.990 6.012845
63.995 5.496063
64.000 5.645563
64.005 5.309228
64.010 5.662228
64.015 5.865162
64.020 5.551107
64.025 5.253516
64.030 5.319288
64.035 5.431623
64.040 5.380957
64.045 5.126662
64.050 4.70771
64.055 4.729794
64.060 4.893461
64.065 5.330664
64.070 5.238025
64.075 5.321741
64.080 5.262219
64.085 5.445997
64.090 5.483944
64.095 5.609454
64.100 5.449778
64.105 5.342717
64.110 5.665341
64.115 5.770547
64.120 5.778579
64.125 5.681395
64.130 5.403718
64.135 5.299952
64.140 5.397879
64.145 5.020978
64.150 4.949243
64.155 4.977245
64.160 5.623083
64.165 6.007535
64.170 6.31941
64.175 6.627078
64.180 6.779719
64.185 6.824182
64.190 6.832428
64.195 6.447313
64.200 6.410624
64.205 6.116899
64.210 6.016846
64.215 5.740545
64.220 5.488735
64.225 5.623252
64.230 5.472039
64.235 5.451127
64.240 5.503508
64.245 5.439423
64.250 5.707998
64.255 5.949997
64.260 5.841137
64.265 5.893115
64.270 5.978185
64.275 6.093794
64.280 6.270685
64.285 6.627789
64.290 6.71293
64.295 6.583591
64.300 6.783753
64.305 6.545372
64.310 6.805737
64.315 6.633271
64.320 6.480579
64.325 6.349254
64.330 6.580299
64.335 6.499234
64.340 6.829795
64.345 6.722712
64.350 6.784446
64.355 6.662195
64.360 6.747175
64.365 6.799889
64.370 6.814079
64.375 6.675069
64.380 6.950157
64.385 7.022533
64.390 7.114779
64.395 7.193223
64.400 6.92337
64.405 6.88205
64.410 7.036813
64.415 6.918552
64.420 7.186778
64.425 7.58151
64.430 7.651932
64.435 8.057084
64.440 8.580699
64.445 9.154217
64.450 9.305598
64.455 9.923667
64.460 10.054473
64.465 10.420158
64.470 10.536917
64.475 10.443589
64.480 10.343513
64.485 10.84814
64.490 10.616745
64.495 10.82412
64.500 11.124987
64.505 11.178227
64.510 11.71769
64.515 12.386465
64.520 12.039093
64.525 12.047046
64.530 11.825682
64.535 11.573646
64.540 11.739226
64.545 11.340101
64.550 11.297681
64.555 12.082974
64.560 12.883234
64.565 13.224029
64.570 13.646871
64.575 13.790244
64.580 13.875306
64.585 13.510625
64.590 13.379742
64.595 12.951754
64.600 13.267097
64.605 13.527881
64.610 13.935575
64.615 14.494094
64.620 15.410508
64.625 15.780099
64.630 15.869489
64.635 16.202625
64.640 15.976129
64.645 16.025143
64.650 15.889279
64.655 15.837391
64.660 16.125257
64.665 16.684326
64.670 16.782373
64.675 17.110971
64.680 17.21843
64.685 17.544014
64.690 17.855658
64.695 17.616861
64.700 17.506618
64.705 17.610035
64.710 17.907051
64.715 17.929842
64.720 18.089085
64.725 18.043894
64.730 18.453203
64.735 18.52898
64.740 18.061096
64.745 17.69932
64.750 17.747746
64.755 17.234953
64.760 16.259474
64.765 15.415174
64.770 15.277252
64.775 15.621508
64.780 15.626003
64.785 15.705939
64.790 16.338839
64.795 16.72526
64.800 17.586773
64.805 17.595785
64.810 17.333641
64.815 17.212229
64.820 16.906763
64.825 16.337719
64.830 15.8201
64.835 14.623116
64.840 14.066839
64.845 13.702709
64.850 13.181121
64.855 13.182069
64.860 13.338317
64.865 13.758469
64.870 13.94051
64.875 13.935549
64.880 13.929046
64.885 14.479359
64.890 13.926148
64.895 13.658839
64.900 13.579179
64.905 13.992249
64.910 13.759256
64.915 13.640434
64.920 13.388347
64.925 13.99533
64.930 13.81146
64.935 13.158164
64.940 12.150826
64.945 11.983128
64.950 11.846305
64.955 11.815283
64.960 11.414674
64.965 11.3015
64.970 11.660395
64.975 11.918002
64.980 12.065176
64.985 12.171399
64.990 11.827615
64.995 11.580705
65.000 11.184925
65.005 11.056184
65.010 10.732957
65.015 10.131891
65.020 10.105021
65.025 9.721151
65.030 9.435021
65.035 9.233921
65.040 8.43576
65.045 8.602885
65.050 8.697535
65.055 8.208124
65.060 8.226142
65.065 8.511976
65.070 8.375315
65.075 9.148097
65.080 8.938291
65.085 9.009763
65.090 9.086477
65.095 9.153145
65.100 8.996924
65.105 9.200874
65.110 8.734
65.115 9.190955
65.120 9.250664
65.125 9.258156
65.130 9.217338
65.135 9.261632
65.140 9.557551
65.145 9.731845
65.150 9.443325
65.155 9.500533
65.160 9.557856
65.165 9.484446
65.170 9.49874
65.175 9.249623
65.180 9.320206
65.185 9.334389
65.190 9.432563
65.195 9.892107
65.200 10.164085
65.205 10.054663
65.210 9.701583
65.215 9.299314
65.220 9.196411
65.225 9.106968
65.230 8.534469
65.235 8.724475
65.240 9.38513
65.245 9.691699
65.250 10.245254
65.255 10.727969
65.260 10.60672
65.265 10.82229
65.270 10.71271
65.275 10.533618
65.280 11.022802
65.285 11.239165
65.290 11.464114
65.295 11.968153
65.300 12.210731
65.305 12.10618
65.310 12.141205
65.315 11.847942
65.320 12.208241
65.325 12.553433
65.330 12.388641
65.335 12.421932
65.340 13.08952
65.345 13.198559
65.350 13.406787
65.355 13.000158
65.360 12.424478
65.365 12.649311
65.370 12.446176
65.375 11.914939
65.380 11.699311
65.385 12.434526
65.390 13.192464
65.395 13.355449
65.400 13.185068
65.405 13.852557
65.410 14.199498
65.415 14.396531
65.420 14.105036
65.425 14.035423
65.430 14.602467
65.435 15.041963
65.440 14.903462
65.445 14.77451
65.450 14.726342
65.455 15.066505
65.460 15.031081
65.465 14.763606
65.470 14.560681
65.475 14.487578
65.480 14.814588
65.485 14.843444
65.490 14.074352
65.495 14.233934
65.500 14.641625
65.505 15.092691
65.510 15.112058
65.515 15.129549
65.520 15.050239
65.525 15.407248
65.530 15.163733
65.535 14.937037
65.540 14.774906
65.545 14.813223
65.550 14.909506
65.555 14.703017
65.560 14.209886
65.565 13.576236
65.570 12.732299
65.575 12.895299
65.580 12.312769
65.585 11.84945
65.590 11.745964
65.595 11.782172
65.600 12.337875
65.605 12.582862
65.610 12.235993
65.615 12.490464
65.620 12.712609
65.625 12.575095
65.630 12.024754
65.635 11.169294
65.640 10.705153
65.645 10.350629
65.650 10.24671
65.655 9.978951
65.660 9.978916
65.665 10.11382
65.670 10.562235
65.675 10.920963
65.680 11.043922
65.685 10.88836
65.690 10.70622
65.695 11.06654
65.700 11.04931
65.705 10.393062
65.710 9.866946
65.715 9.142381
65.720 8.997407
65.725 9.062654
65.730 8.421525
65.735 8.024519
65.740 8.22184
65.745 8.186006
65.750 8.305182
65.755 8.377251
65.760 8.335214
65.765 8.465126
65.770 8.157317
65.775 8.108754
65.780 8.438673
65.785 8.646402
65.790 8.37054
65.795 8.174587
65.800 8.303603
65.805 8.364187
65.810 7.997338
65.815 7.626464
65.820 7.292264
65.825 7.155744
65.830 6.915486
65.835 6.689051
65.840 6.743554
65.845 6.928186
65.850 7.238655
65.855 7.33054
65.860 7.55939
65.865 7.514185
65.870 7.880773
65.875 8.13215
65.880 8.004111
65.885 7.671288
65.890 7.410955
65.895 7.188962
65.900 7.120992
65.905 6.334699
65.910 5.535481
65.915 5.58654
65.920 5.557304
65.925 5.626797
65.930 5.541079
65.935 5.604045
65.940 5.805455
65.945 5.861761
65.950 5.860278
65.955 6.001705
65.960 6.04554
65.965 6.414645
65.970 6.55798
65.975 6.838863
65.980 6.833244
65.985 6.633367
65.990 6.214907
65.995 6.208808
66.000 5.888726
66.005 5.849934
66.010 5.737471
66.015 5.820225
66.020 5.647221
66.025 5.943449
66.030 5.727096
66.035 5.618448
66.040 5.496068
66.045 5.242586
66.050 5.494493
66.055 5.693963
66.060 5.832507
66.065 5.840179
66.070 6.102618
66.075 5.970543
66.080 6.173584
66.085 6.095986
66.090 6.09539
66.095 6.180443
66.100 6.342875
66.105 6.034933
66.110 6.314686
66.115 6.604832
66.120 6.354296
66.125 5.988691
66.130 5.449481
66.135 5.554704
66.140 5.664855
66.145 5.484924
66.150 5.222071
66.155 5.340944
66.160 5.410865
66.165 5.655023
66.170 5.672062
66.175 5.620832
66.180 5.752396
66.185 5.501658
66.190 5.393083
66.195 5.866084
66.200 5.840179
66.205 5.649238
66.210 5.691379
66.215 5.830728
66.220 6.045655
66.225 5.819993
66.230 5.751676
66.235 5.86428
66.240 5.654263
66.245 5.450972
66.250 5.36588
66.255 5.403874
66.260 5.642398
66.265 5.581161
66.270 5.288509
66.275 5.508632
66.280 5.420981
66.285 5.274951
66.290 5.412181
66.295 5.421355
66.300 5.169102
66.305 5.061659
66.310 4.862148
66.315 4.938382
66.320 5.16573
66.325 5.092852
66.330 5.044043
66.335 4.898796
66.340 5.02772
66.345 5.276624
66.350 5.492229
66.355 5.34842
66.360 5.235155
66.365 5.1027
66.370 5.658502
66.375 5.889435
66.380 5.72594
66.385 5.585826
66.390 5.440817
66.395 5.662526
66.400 5.854186
66.405 5.638962
66.410 5.569013
66.415 5.768168
66.420 5.808311
66.425 6.015778
66.430 5.448544
66.435 5.52459
66.440 5.39617
66.445 5.394666
66.450 5.218948
66.455 5.036546
66.460 5.083162
66.465 5.384274
66.470 5.566222
66.475 5.732457
66.480 5.735893
66.485 6.016852
66.490 6.077939
66.495 5.921914
66.500 5.779333
66.505 5.338593
66.510 5.079896
66.515 5.152165
66.520 5.022159
66.525 5.111495
66.530 5.113159
66.535 5.271522
66.540 5.899142
66.545 6.19214
66.550 6.184271
66.555 5.98443
66.560 5.880783
66.565 5.910625
66.570 6.397498
66.575 5.978353
66.580 6.089329
66.585 6.047305
66.590 6.229493
66.595 6.532483
66.600 6.425243
66.605 5.91712
66.610 5.871985
66.615 5.573788
66.620 5.618161
66.625 5.347915
66.630 4.979618
66.635 5.166163
66.640 5.352438
66.645 5.510351
66.650 5.726977
66.655 5.584453
66.660 5.466858
66.665 5.384813
66.670 5.178296
66.675 5.061309
66.680 5.036266
66.685 4.712903
66.690 4.790806
66.695 5.191298
66.700 5.353631
66.705 5.309939
66.710 5.385603
66.715 5.191423
66.720 5.583057
66.725 5.451815
66.730 5.358075
66.735 5.478499
66.740 5.560988
66.745 5.366955
66.750 5.245039
66.755 5.11063
66.760 5.365113
66.765 5.626848
66.770 5.548837
66.775 5.457811
66.780 5.582588
66.785 5.468458
66.790 5.506046
66.795 5.390532
66.800 5.05389
66.805 5.109582
66.810 5.377449
66.815 5.524262
66.820 5.792771
66.825 5.661529
66.830 5.461943
66.835 5.62099
66.840 5.409901
66.845 5.237728
66.850 5.325437
66.855 5.622706
66.860 5.856661
66.865 6.256908
66.870 6.345115
66.875 6.51203
66.880 6.395446
66.885 6.212368
66.890 5.728368
66.895 5.440404
66.900 5.308733
66.905 5.129436
66.910 4.854204
66.915 4.828178
66.920 4.778612
66.925 4.95588
66.930 5.165752
66.935 5.090417
66.940 5.101553
66.945 5.233145
66.950 5.646298
66.955 5.481456
66.960 5.346935
66.965 5.330157
66.970 5.30003
66.975 5.474499
66.980 5.456077
66.985 5.189576
66.990 5.423298
66.995 5.644817
67.000 5.474114
67.005 5.742881
67.010 6.19168
67.015 6.30829
67.020 6.201545
67.025 5.926919
67.030 6.140795
67.035 6.329886
67.040 6.202765
67.045 5.915611
67.050 5.95484
67.055 6.115602
67.060 6.562547
67.065 6.482758
67.070 6.611306
67.075 6.314456
67.080 6.066374
67.085 6.010731
67.090 5.749283
67.095 5.089042
67.100 4.82597
67.105 4.561015
67.110 4.652357
67.115 4.773726
67.120 5.14179
67.125 5.710616
67.130 5.802364
67.135 5.627828
67.140 5.432182
67.145 5.449183
67.150 5.450517
67.155 5.193439
67.160 4.909721
67.165 4.990113
67.170 5.280379
67.175 5.712654
67.180 5.684904
67.185 5.475865
67.190 5.092324
67.195 4.955978
67.200 5.085973
67.205 4.930971
67.210 4.359718
67.215 4.26229
67.220 4.480886
67.225 4.937956
67.230 5.187333
67.235 4.911865
67.240 5.281881
67.245 5.526892
67.250 5.630621
67.255 5.359871
67.260 5.150406
67.265 4.821557
67.270 5.02492
67.275 5.186901
67.280 5.335663
67.285 5.586771
67.290 5.914293
67.295 6.126466
67.300 6.569845
67.305 6.405143
67.310 6.186293
67.315 5.986008
67.320 5.816425
67.325 5.645406
67.330 5.418054
67.335 5.108184
67.340 4.769766
67.345 4.563327
67.350 4.626453
67.355 4.563972
67.360 4.727726
67.365 5.042583
67.370 5.454973
67.375 6.019731
67.380 6.006026
67.385 6.22981
67.390 6.081152
67.395 6.02354
67.400 6.001506
67.405 5.838624
67.410 5.852952
67.415 6.062759
67.420 6.165542
67.425 6.401145
67.430 6.04578
67.435 5.867477
67.440 6.05422
67.445 5.849678
67.450 5.605031
67.455 5.49893
67.460 5.480219
67.465 5.836999
67.470 6.238788
67.475 6.345182
67.480 6.693311
67.485 6.621123
67.490 6.537572
67.495 6.55923
67.500 6.26979
67.505 5.745288
67.510 5.535029
67.515 5.53491
67.520 5.623623
67.525 5.478339
67.530 5.31574
67.535 5.401896
67.540 5.694556
67.545 5.439095
67.550 5.373628
67.555 5.551309
67.560 5.600638
67.565 5.635374
67.570 5.930336
67.575 5.780201
67.580 5.827854
67.585 5.992166
67.590 6.29557
67.595 6.903603
67.600 6.994817
67.605 6.534171
67.610 7.10717
67.615 7.809047
67.620 7.790333
67.625 7.408677
67.630 6.831255
67.635 6.745498
67.640 7.001119
67.645 6.694317
67.650 6.074172
67.655 5.851535
67.660 5.892847
67.665 5.993599
67.670 6.278893
67.675 6.295206
67.680 5.978239
67.685 5.857797
67.690 5.898948
67.695 5.932288
67.700 6.100473
67.705 5.985813
67.710 5.79805
67.715 6.1408
67.720 6.265713
67.725 6.633348
67.730 6.662313
67.735 6.455512
67.740 6.413849
67.745 6.663833
67.750 6.569483
67.755 6.496636
67.760 6.137779
67.765 6.1799
67.770 6.561624
67.775 6.792359
67.780 6.88258
67.785 7.166541
67.790 7.600014
67.795 7.988213
67.800 8.205611
67.805 8.105406
67.810 8.200513
67.815 8.287532
67.820 8.6528
67.825 8.609962
67.830 8.309985
67.835 8.090109
67.840 8.181296
67.845 7.918287
67.850 7.92579
67.855 7.304593
67.860 7.285938
67.865 7.91097
67.870 8.144873
67.875 8.269705
67.880 8.494761
67.885 8.486374
67.890 9.328666
67.895 9.184464
67.900 9.043818
67.905 9.439813
67.910 9.284856
67.915 9.344468
67.920 9.639753
67.925 10.034921
67.930 10.581207
67.935 10.743754
67.940 10.339107
67.945 10.60673
67.950 10.521315
67.955 10.158155
67.960 9.578854
67.965 8.978224
67.970 9.114818
67.975 10.112204
67.980 10.216406
67.985 10.574467
67.990 11.161451
67.995 11.421247
68.000 11.646638
68.005 11.294887
68.010 10.740883
68.015 10.506185
68.020 10.395875
68.025 10.574581
68.030 11.201693
68.035 11.393722
68.040 11.617908
68.045 11.880672
68.050 12.49401
68.055 12.454263
68.060 11.940327
68.065 11.725241
68.070 11.848371
68.075 11.943549
68.080 11.68026
68.085 11.505837
68.090 11.523391
68.095 11.729351
68.100 12.073699
68.105 11.774418
68.110 11.763308
68.115 11.617364
68.120 11.403135
68.125 11.745919
68.130 11.529052
68.135 10.857347
68.140 10.945956
68.145 10.884251
68.150 11.011697
68.155 10.836982
68.160 10.420155
68.165 10.212787
68.170 10.089211
68.175 9.743928
68.180 9.660662
68.185 9.877284
68.190 9.425963
68.195 9.091411
68.200 9.579516
68.205 10.279836
68.210 10.57358
68.215 10.224288
68.220 10.152036
68.225 10.850662
68.230 10.912701
68.235 10.108421
68.240 9.816791
68.245 9.784909
68.250 10.026754
68.255 10.044746
68.260 10.015615
68.265 10.569323
68.270 11.021967
68.275 10.683311
68.280 10.534323
68.285 10.563917
68.290 10.596889
68.295 10.408555
68.300 10.170171
68.305 10.188622
68.310 10.126101
68.315 10.142179
68.320 9.92755
68.325 9.589184
68.330 9.289207
68.335 9.524858
68.340 9.428672
68.345 9.300656
68.350 9.390124
68.355 9.771561
68.360 9.868914
68.365 9.945479
68.370 9.526513
68.375 9.173434
68.380 9.355657
68.385 9.19276
68.390 8.971173
68.395 9.059265
68.400 9.150883
68.405 9.285561
68.410 9.852788
68.415 9.969445
68.420 9.503226
68.425 9.302291
68.430 8.862911
68.435 8.46564
68.440 8.386536
68.445 7.665882
68.450 7.36885
68.455 7.432703
68.460 7.571654
68.465 7.82004
68.470 7.674314
68.475 7.357843
68.480 7.489135
68.485 7.837557
68.490 7.98232
68.495 7.788025
68.500 7.812835
68.505 8.350173
68.510 8.337234
68.515 7.783687
68.520 7.443828
68.525 7.114827
68.530 7.19552
68.535 7.516638
68.540 7.443608
68.545 7.619226
68.550 7.820858
68.555 8.017465
68.560 8.257808
68.565 8.380401
68.570 7.984445
68.575 7.760442
68.580 7.681182
68.585 7.656941
68.590 7.755441
68.595 7.829918
68.600 7.480176
68.605 7.542633
68.610 7.708838
68.615 8.130294
68.620 7.972218
68.625 8.266217
68.630 8.229318
68.635 8.356559
68.640 8.13157
68.645 7.89789
68.650 7.792752
68.655 8.434635
68.660 7.766009
68.665 7.764054
68.670 7.734311
68.675 8.126222
68.680 8.33567
68.685 8.331836
68.690 8.693769
68.695 9.553175
68.700 9.658391
68.705 9.816296
68.710 9.780987
68.715 9.605197
68.720 9.658645
68.725 8.91538
68.730 8.094028
68.735 7.892863
68.740 7.767424
68.745 7.626247
68.750 8.027403
68.755 8.376871
68.760 8.300945
68.765 8.801888
68.770 9.335793
68.775 9.601427
68.780 9.893209
68.785 9.711532
68.790 9.880333
68.795 10.143735
68.800 9.898273
68.805 9.821081
68.810 9.453374
68.815 9.880499
68.820 9.847027
68.825 9.649275
68.830 10.062869
68.835 10.529751
68.840 11.191643
68.845 11.783859
68.850 11.407239
68.855 11.17465
68.860 11.472402
68.865 11.522155
68.870 11.284899
68.875 10.773108
68.880 10.738411
68.885 10.569671
68.890 10.990088
68.895 10.577224
68.900 10.342409
68.905 10.327245
68.910 10.203712
68.915 9.592642
68.920 9.500242
68.925 9.347183
68.930 8.838901
68.935 8.905755
68.940 8.928877
68.945 8.992709
68.950 9.268108
68.955 9.08809
68.960 9.620516
68.965 10.335871
68.970 10.213471
68.975 9.696929
68.980 9.203984
68.985 9.174901
68.990 9.36295
68.995 8.719411
69.000 8.48658
69.005 8.73759
69.010 8.82518
69.015 9.117216
69.020 9.225317
69.025 9.193411
69.030 9.345174
69.035 9.586996
69.040 9.661772
69.045 9.945717
69.050 9.877058
69.055 9.952877
69.060 10.143715
69.065 10.004682
69.070 9.420265
69.075 8.984037
69.080 8.865481
69.085 8.545004
69.090 8.775736
69.095 8.374486
69.100 8.377726
69.105 8.384561
69.110 8.92672
69.115 9.128977
69.120 9.3643
69.125 8.969125
69.130 8.595686
69.135 8.435945
69.140 8.048194
69.145 7.710194
69.150 7.864183
69.155 7.552337
69.160 7.669795
69.165 7.977801
69.170 8.223671
69.175 8.359284
69.180 7.942817
69.185 7.645885
69.190 7.437447
69.195 7.314496
69.200 7.689485
69.205 7.523349
69.210 7.371674
69.215 7.438009
69.220 7.463344
69.225 7.772793
69.230 7.509474
69.235 6.891207
69.240 6.837004
69.245 6.660491
69.250 7.098992
69.255 7.122665
69.260 6.93397
69.265 7.327346
69.270 7.262451
69.275 7.133456
69.280 7.132043
69.285 6.662734
69.290 6.538982
69.295 6.316953
69.300 6.00568
69.305 6.030629
69.310 6.11574
69.315 5.747771
69.320 5.444558
69.325 5.730123
69.330 6.021578
69.335 6.335246
69.340 6.46349
69.345 6.501864
69.350 6.724984
69.355 6.802474
69.360 6.549846
69.365 6.495443
69.370 6.467505
69.375 6.685813
69.380 6.556934
69.385 6.372437
69.390 6.148833
69.395 6.100424
69.400 6.002416
69.405 5.75007
69.410 5.341437
69.415 5.377811
69.420 5.777002
69.425 6.156465
69.430 6.172296
69.435 6.095735
69.440 6.232642
69.445 6.317562
69.450 6.232344
69.455 5.924269
69.460 5.724383
69.465 5.793858
69.470 5.515588
69.475 5.283938
69.480 5.344856
69.485 5.958245
69.490 6.377299
69.495 6.45372
69.500 6.593349
69.505 6.60111
69.510 6.662414
69.515 6.87036
69.520 6.452764
69.525 6.220961
69.530 6.058333
69.535 5.834382
69.540 6.006716
69.545 5.699313
69.550 4.938128
69.555 4.77233
69.560 4.827154
69.565 4.835485
69.570 4.976313
69.575 5.28356
69.580 5.7063
69.585 6.203247
69.590 6.416875
69.595 6.716931
69.600 6.801821
69.605 6.697083
69.610 6.14352
69.615 6.123836
69.620 6.231241
69.625 5.908024
69.630 5.421143
69.635 5.303147
69.640 5.335835
69.645 5.733346
69.650 5.595744
69.655 5.218719
69.660 5.17731
69.665 5.51586
69.670 5.567147
69.675 5.512565
69.680 5.353107
69.685 5.689159
69.690 6.084905
69.695 6.152228
69.700 6.028048
69.705 6.271212
69.710 6.374633
69.715 6.234319
69.720 5.717615
69.725 5.474424
69.730 5.427629
69.735 5.393667
69.740 5.465396
69.745 5.839895
69.750 6.063652
69.755 6.478976
69.760 6.388347
69.765 6.345469
69.770 6.060306
69.775 5.976599
69.780 5.659219
69.785 5.175307
69.790 4.923734
69.795 5.246063
69.800 5.561039
69.805 5.377096
69.810 5.34043
69.815 5.336943
69.820 5.622245
69.825 5.669368
69.830 5.643
69.835 5.854282
69.840 5.882872
69.845 5.791694
69.850 5.746374
69.855 5.571631
69.860 5.518871
69.865 5.527427
69.870 5.000022
69.875 5.095052
69.880 4.964451
69.885 5.13875
69.890 5.4286
69.895 5.379368
69.900 5.3647
69.905 5.771242
69.910 5.766538
69.915 5.656093
69.920 5.525214
69.925 5.286382
69.930 5.541468
69.935 5.49443
69.940 5.705734
69.945 5.897476
69.950 6.032939
69.955 5.946796
69.960 5.931511
69.965 5.648428
69.970 5.715924
69.975 5.567577
69.980 5.297417
69.985 5.368814
69.990 5.189251
69.995 5.022243
70.000 4.877213
70.005 4.678266
70.010 4.672684
70.015 4.940144
70.020 5.147803
70.025 5.489161
70.030 5.759846
70.035 5.991457
70.040 6.040697
70.045 6.186505
70.050 5.937662
70.055 5.624768
70.060 5.612395
70.065 5.475429
70.070 5.409965
70.075 5.403165
70.080 5.575969
70.085 5.867
70.090 6.070107
70.095 6.084005
70.100 6.195001
70.105 5.835708
70.110 6.046571
70.115 5.630307
70.120 5.61651
70.125 5.43306
70.130 5.487651
70.135 5.433141
70.140 5.681411
70.145 5.073983
70.150 5.174089
70.155 5.222002
70.160 5.324027
70.165 5.20881
70.170 5.509186
70.175 5.733603
70.180 5.78857
70.185 5.542771
70.190 5.511456
70.195 5.518033
70.200 5.534455
70.205 5.155374
70.210 4.689081
70.215 4.970666
70.220 5.113741
70.225 5.303662
70.230 5.677092
70.235 5.638581
70.240 5.85017
70.245 6.445455
70.250 6.37574
70.255 6.25152
70.260 5.770883
70.265 5.679186
70.270 5.719405
70.275 5.282916
70.280 4.946064
70.285 4.939112
70.290 5.106023
70.295 5.319452
70.300 4.951729
70.305 5.109789
70.310 5.184652
70.315 4.994337
70.320 5.1204
70.325 5.197837
70.330 5.245507
70.335 5.356179
70.340 5.294806
70.345 5.384111
70.350 5.689617
70.355 5.613227
70.360 5.559586
70.365 5.712906
70.370 5.802372
70.375 5.815685
70.380 6.100284
70.385 6.351021
70.390 6.316516
70.395 6.299229
70.400 5.91277
70.405 5.805581
70.410 5.872771
70.415 5.470945
70.420 4.940841
70.425 4.74995
70.430 4.596628
70.435 4.948354
70.440 5.21198
70.445 5.450044
70.450 5.742906
70.455 5.713629
70.460 5.935513
70.465 5.802297
70.470 5.4162
70.475 5.019908
70.480 4.607512
70.485 4.220366
70.490 4.251607
70.495 4.275451
70.500 4.326204
70.505 4.53562
70.510 4.611986
70.515 4.819159
70.520 4.972399
70.525 5.496548
70.530 5.309995
70.535 5.480308
70.540 5.362038
70.545 5.745418
70.550 5.69796
70.555 5.348615
70.560 5.056809
70.565 5.121799
70.570 5.178054
70.575 5.304353
70.580 5.039883
70.585 5.042791
70.590 5.369302
70.595 5.445174
70.600 5.539587
70.605 5.30802
70.610 4.981341
70.615 5.085873
70.620 4.959172
70.625 4.902571
70.630 4.80785
70.635 4.826332
70.640 4.762552
70.645 4.789164
70.650 4.79035
70.655 5.137078
70.660 5.376221
70.665 5.724137
70.670 5.962793
70.675 6.025569
70.680 6.294221
70.685 6.226755
70.690 6.590447
70.695 6.739922
70.700 6.258182
70.705 6.12025
70.710 6.111228
70.715 5.708065
70.720 5.661947
70.725 5.216709
70.730 5.109614
70.735 5.03602
70.740 5.193573
70.745 5.337302
70.750 5.301043
70.755 5.275213
70.760 5.012421
70.765 5.38632
70.770 5.370785
70.775 5.177241
70.780 5.460339
70.785 5.841215
70.790 6.044771
70.795 5.995718
70.800 5.688498
70.805 5.620879
70.810 5.378302
70.815 5.242819
70.820 5.132993
70.825 4.950642
70.830 4.9266
70.835 4.828275
70.840 4.925389
70.845 5.314201
70.850 5.393118
70.855 5.42804
70.860 5.507775
70.865 5.624207
70.870 5.61338
70.875 5.679426
70.880 5.488783
70.885 5.222307
70.890 5.394959
70.895 5.449656
70.900 5.397084
70.905 5.54134
70.910 5.501547
70.915 5.5303
70.920 5.633191
70.925 5.495856
70.930 5.64564
70.935 5.717292
70.940 5.75424
70.945 5.713382
70.950 5.779383
70.955 5.768253
70.960 5.603899
70.965 5.511915
70.970 5.539883
70.975 5.271677
70.980 5.375815
70.985 5.174207
70.990 5.194215
70.995 5.13287
71.000 4.920716
71.005 5.043101
71.010 5.331656
71.015 5.226737
71.020 5.159573
71.025 5.045162
71.030 4.946093
71.035 5.185158
71.040 5.285812
71.045 5.369964
71.050 5.91559
71.055 6.146089
71.060 6.108363
71.065 6.250294
71.070 6.195127
71.075 5.851089
71.080 5.757742
71.085 5.397264
71.090 5.374215
71.095 5.588525
71.100 5.339751
71.105 4.854345
71.110 5.056621
71.115 5.112059
71.120 5.20905
71.125 5.345062
71.130 5.516404
71.135 5.606523
71.140 6.024734
71.145 6.111503
71.150 6.200734
71.155 6.104897
71.160 5.890989
71.165 5.795941
71.170 5.587587
71.175 5.504218
71.180 5.494322
71.185 5.520494
71.190 5.305364
71.195 5.526664
71.200 5.673709
71.205 5.871021
71.210 5.546529
71.215 5.396365
71.220 5.234872
71.225 5.412174
71.230 5.562602
71.235 5.427282
71.240 5.43856
71.245 6.036231
71.250 6.174846
71.255 6.169104
71.260 5.983703
71.265 5.638289
71.270 5.757927
71.275 5.921765
71.280 5.909724
71.285 5.855219
71.290 5.983574
71.295 5.940905
71.300 5.928453
71.305 5.950715
71.310 5.639615
71.315 5.210799
71.320 5.098456
71.325 4.875711
71.330 4.791141
71.335 4.983873
71.340 5.251319
71.345 5.179603
71.350 5.354082
71.355 5.396253
71.360 5.750745
71.365 6.111895
71.370 5.725726
71.375 5.48617
71.380 5.414321
71.385 5.067867
71.390 4.780584
71.395 4.668378
71.400 4.667665
71.405 4.867606
71.410 4.925788
71.415 5.168759
71.420 5.489971
71.425 5.644823
71.430 5.63146
71.435 5.567662
71.440 5.43482
71.445 5.222434
71.450 5.251957
71.455 5.493057
71.460 5.448158
71.465 5.209267
71.470 4.796522
71.475 4.70774
71.480 4.856474
71.485 5.138919
71.490 4.846271
71.495 5.082253
71.500 5.360036
71.505 5.563051
71.510 5.887626
71.515 5.656146
71.520 4.916079
71.525 4.945356
71.530 4.591763
71.535 4.60336
71.540 4.675462
71.545 4.812274
71.550 5.179262
71.555 5.395944
71.560 5.802647
71.565 6.182874
71.570 6.372772
71.575 6.285813
71.580 6.003636
71.585 5.849732
71.590 6.115372
71.595 5.963324
71.600 5.582855
71.605 5.296711
71.610 5.421175
71.615 5.265735
71.620 5.428105
71.625 5.256388
71.630 4.92626
71.635 5.201859
71.640 5.455265
71.645 5.538019
71.650 5.710492
71.655 5.782398
71.660 5.685766
71.665 5.718457
71.670 5.507387
71.675 5.247784
71.680 5.255845
71.685 5.176155
71.690 5.018608
71.695 5.242708
71.700 5.198571
71.705 4.868953
71.710 4.844008
71.715 4.805681
71.720 4.828743
71.725 5.187755
71.730 5.189318
71.735 5.46436
71.740 5.456644
71.745 5.460264
71.750 5.543356
71.755 5.440091
71.760 5.278732
71.765 5.345648
71.770 5.360464
71.775 5.530851
71.780 5.35436
71.785 5.286199
71.790 5.224176
71.795 5.233751
71.800 5.395872
71.805 5.378507
71.810 5.375345
71.815 5.725619
71.820 5.758645
71.825 5.729989
71.830 5.482187
71.835 5.55279
71.840 5.390731
71.845 5.26406
71.850 5.138304
71.855 5.268608
71.860 5.589822
71.865 5.819018
71.870 5.745681
71.875 5.829486
71.880 5.996502
71.885 6.159995
71.890 5.900433
71.895 5.64326
71.900 5.390612
71.905 5.387724
71.910 5.607342
71.915 5.401554
71.920 5.247836
71.925 5.093804
71.930 4.951582
71.935 5.039368
71.940 4.956624
71.945 4.825578
71.950 5.092786
71.955 5.034661
71.960 5.360569
71.965 5.326303
71.970 5.474086
71.975 5.713656
71.980 5.668334
71.985 5.706397
71.990 5.581889
71.995 5.536609
72.000 5.75788
72.005 5.337228
72.010 5.183923
72.015 5.290619
72.020 5.260158
72.025 5.178265
72.030 4.910718
72.035 4.974648
72.040 5.008466
72.045 4.976987
72.050 5.022536
72.055 5.113439
72.060 5.548279
72.065 5.872777
72.070 6.018176
72.075 6.426229
72.080 6.267935
72.085 5.970562
72.090 5.773662
72.095 5.759492
72.100 5.543354
72.105 5.184299
72.110 5.370894
72.115 5.431884
72.120 5.812597
72.125 5.721846
72.130 5.189898
72.135 5.358718
72.140 5.068987
72.145 4.554792
72.150 4.387482
72.155 4.173612
72.160 4.440377
72.165 4.835174
72.170 4.896817
72.175 5.146499
72.180 5.214688
72.185 5.268686
72.190 5.483985
72.195 5.261922
72.200 5.013818
72.205 5.044688
72.210 5.163069
72.215 5.499778
72.220 5.658452
72.225 5.355442
72.230 5.380575
72.235 5.525653
72.240 5.230719
72.245 4.786466
72.250 4.758126
72.255 4.683312
72.260 5.033146
72.265 4.960361
72.270 4.758878
72.275 4.789505
72.280 4.813938
72.285 4.633501
72.290 4.594163
72.295 4.562362
72.300 4.67842
72.305 4.83294
72.310 5.07871
72.315 5.190402
72.320 5.172822
72.325 5.05151
72.330 5.111999
72.335 5.09381
72.340 5.521823
72.345 5.616848
72.350 5.538871
72.355 5.564476
72.360 5.69546
72.365 5.598981
72.370 5.544323
72.375 5.078303
72.380 4.938435
72.385 5.078197
72.390 4.971561
72.395 4.650591
72.400 4.62366
72.405 4.833249
72.410 5.01978
72.415 5.258084
72.420 5.436058
72.425 5.569317
72.430 5.485412
72.435 5.365682
72.440 5.363204
72.445 5.573634
72.450 5.332013
72.455 5.279187
72.460 5.544666
72.465 5.94483
72.470 6.214628
72.475 6.11209
72.480 6.036089
72.485 5.861264
72.490 5.642123
72.495 5.55467
72.500 5.314643
72.505 5.145198
72.510 4.946075
72.515 5.086766
72.520 5.525641
72.525 5.443298
72.530 5.560267
72.535 5.608614
72.540 5.648785
72.545 5.641306
72.550 5.423113
72.555 5.210284
72.560 5.014059
72.565 5.144848
72.570 5.400289
72.575 5.232918
72.580 5.122958
72.585 4.887336
72.590 5.056932
72.595 5.272247
72.600 5.048655
72.605 4.877256
72.610 4.965534
72.615 5.596489
72.620 5.830281
72.625 5.858733
72.630 5.626564
72.635 5.339147
72.640 5.406562
72.645 5.07049
72.650 5.000022
72.655 4.924726
72.660 4.507183
72.665 4.641683
72.670 4.815882
72.675 5.223138
72.680 5.394781
72.685 5.272422
72.690 5.288225
72.695 5.322912
72.700 5.226599
72.705 5.281997
72.710 5.083813
72.715 5.117079
72.720 5.270774
72.725 5.440247
72.730 5.726706
72.735 5.782991
72.740 5.468563
72.745 5.461999
72.750 5.446273
72.755 5.700432
72.760 5.721001
72.765 5.739816
72.770 5.687748
72.775 5.53688
72.780 5.626036
72.785 5.257842
72.790 5.219141
72.795 5.330248
72.800 5.291989
72.805 5.526783
72.810 5.846004
72.815 5.933922
72.820 5.800745
72.825 5.521583
72.830 5.454901
72.835 5.228157
72.840 5.186924
72.845 5.008308
72.850 4.85247
72.855 4.869863
72.860 4.785142
72.865 4.72229
72.870 4.569211
72.875 4.557645
72.880 4.432413
72.885 4.527588
72.890 4.991261
72.895 4.955348
72.900 4.870144
72.905 5.176721
72.910 5.297611
72.915 5.71547
72.920 5.682668
72.925 5.804591
72.930 6.056878
72.935 6.11539
72.940 6.025045
72.945 5.97844
72.950 5.832973
72.955 5.697233
72.960 5.421008
72.965 5.535813
72.970 5.157691
72.975 4.935465
72.980 4.737552
72.985 4.613164
72.990 4.566386
72.995 4.713571
73.000 4.65216
73.005 4.917793
73.010 4.898362
73.015 4.897187
73.020 4.861478
73.025 5.33289
73.030 5.19379
73.035 5.464686
73.040 5.646389
73.045 5.716387
73.050 5.76569
73.055 6.079696
73.060 5.770438
73.065 5.824786
73.070 5.555242
73.075 5.635713
73.080 5.560084
73.085 5.586553
73.090 5.343973
73.095 5.243068
73.100 5.242643
73.105 5.135988
73.110 4.995089
73.115 4.989754
73.120 4.953753
73.125 4.495783
73.130 4.382221
73.135 4.2555
73.140 4.147856
73.145 4.0962
73.150 4.049924
73.155 4.323192
73.160 4.943234
73.165 5.001545
73.170 4.953445
73.175 4.808747
73.180 4.673483
73.185 4.314768
73.190 3.764622
73.195 3.127004
73.200 3.134635
73.205 3.62288
73.210 3.514509
73.215 3.897339
73.220 4.346772
73.225 4.490331
73.230 4.834832
73.235 4.934217
73.240 4.79319
73.245 4.909363
73.250 4.783886
73.255 4.663934
73.260 5.240065
73.265 5.558716
73.270 5.308811
73.275 5.305384
73.280 5.609104
73.285 5.614483
73.290 5.530415
73.295 4.86552
73.300 4.75001
73.305 4.86655
73.310 4.897222
73.315 4.855802
73.320 4.807641
73.325 4.789178
73.330 4.794727
73.335 4.660371
73.340 4.702096
73.345 4.57284
73.350 4.646421
73.355 4.57364
73.360 5.000712
73.365 5.35762
73.370 5.373841
73.375 5.416523
73.380 5.480704
73.385 5.368082
73.390 5.493783
73.395 5.130852
73.400 4.99547
73.405 4.942456
73.410 4.843231
73.415 4.621714
73.420 4.699979
73.425 4.472591
73.430 4.297122
73.435 4.091255
73.440 4.076105
73.445 4.610303
73.450 4.784301
73.455 4.732069
73.460 5.103432
73.465 5.302698
73.470 5.52607
73.475 5.774123
73.480 5.395749
73.485 5.23604
73.490 5.346221
73.495 5.556153
73.500 5.74449
73.505 5.437305
73.510 5.058709
73.515 5.271023
73.520 5.654967
73.525 5.72471
73.530 5.578206
73.535 5.51922
73.540 5.750387
73.545 5.897377
73.550 6.069027
73.555 5.648981
73.560 5.385148
73.565 5.266116
73.570 5.164532
73.575 5.241144
73.580 5.418814
73.585 5.316683
73.590 5.228924
73.595 5.018486
73.600 5.148433
73.605 5.145426
73.610 4.804865
73.615 4.475352
73.620 4.290774
73.625 4.649951
73.630 4.741934
73.635 4.628829
73.640 4.847127
73.645 4.942992
73.650 5.198339
73.655 5.042057
73.660 4.875606
73.665 4.864187
73.670 4.872263
73.675 5.037466
73.680 5.094057
73.685 4.935794
73.690 5.015307
73.695 5.314138
73.700 5.232923
73.705 5.15755
73.710 4.983989
73.715 5.115558
73.720 5.297287
73.725 5.381296
73.730 5.073066
73.735 5.199923
73.740 5.117641
73.745 4.950715
73.750 4.687305
73.755 4.673241
73.760 4.752388
73.765 4.918368
73.770 4.840551
73.775 4.776792
73.780 4.872949
73.785 5.018439
73.790 4.896179
73.795 4.592121
73.800 4.640276
73.805 4.973915
73.810 4.912046
73.815 5.133425
73.820 5.284832
73.825 5.480014
73.830 5.477567
73.835 5.27397
73.840 4.923306
73.845 5.378045
73.850 5.23352
73.855 4.813904
73.860 5.118752
73.865 5.340211
73.870 5.360274
73.875 5.569284
73.880 5.34545
73.885 5.860667
73.890 5.826129
73.895 5.563117
73.900 5.055924
73.905 4.798244
73.910 4.517765
73.915 4.112419
73.920 3.661996
73.925 3.741047
73.930 3.995137
73.935 4.550459
73.940 4.986046
73.945 5.00757
73.950 5.031174
73.955 5.366085
73.960 5.327356
73.965 5.036609
73.970 4.894666
73.975 4.600536
73.980 4.743859
73.985 4.727364
73.990 4.583838
73.995 4.328567
74.000 4.280847
74.005 4.272413
74.010 4.701615
74.015 4.664008
74.020 4.48591
74.025 4.522365
74.030 5.016413
74.035 4.946775
74.040 4.673915
74.045 4.32029
74.050 4.468197
74.055 4.432076
74.060 4.508747
74.065 4.2541
74.070 4.077106
74.075 4.018281
74.080 3.901896
74.085 3.958834
74.090 4.164316
74.095 4.380621
74.100 4.438502
74.105 4.641398
74.110 4.531104
74.115 4.557881
74.120 4.287046
74.125 3.906579
74.130 3.662104
74.135 3.741876
74.140 3.776632
74.145 4.070296
74.150 4.278517
74.155 4.847773
74.160 5.13519
74.165 5.179482
74.170 5.264671
74.175 5.532126
74.180 5.634477
74.185 5.741681
74.190 5.393579
74.195 5.222874
74.200 5.08009
74.205 5.009547
74.210 4.534888
74.215 4.040895
74.220 3.934882
74.225 4.189779
74.230 4.400183
74.235 4.418689
74.240 4.661705
74.245 5.231044
74.250 5.431114
74.255 5.382404
74.260 5.130755
74.265 5.277064
74.270 5.216129
74.275 5.343602
74.280 5.11547
74.285 5.051732
74.290 4.930685
74.295 4.636433
74.300 4.499856
74.305 4.671769
74.310 4.618134
74.315 4.772871
74.320 4.861193
74.325 5.043348
74.330 5.232261
74.335 5.452749
74.340 5.288771
74.345 5.087867
74.350 5.177818
74.355 5.186934
74.360 5.287984
74.365 5.374326
74.370 5.181753
74.375 5.260644
74.380 5.18382
74.385 4.708587
74.390 4.420391
74.395 4.28659
74.400 4.391613
74.405 4.315732
74.410 4.425843
74.415 4.299634
74.420 4.504919
74.425 4.737181
74.430 4.932534
74.435 4.564129
74.440 4.636945
74.445 4.606198
74.450 4.983171
74.455 5.021712
74.460 4.812494
74.465 4.771883
74.470 4.773811
74.475 4.657513
74.480 4.452696
74.485 4.07541
74.490 4.153677
74.495 4.273033
74.500 4.382242
74.505 4.513398
74.510 4.688278
74.515 4.737426
74.520 5.064065
74.525 4.985757
74.530 5.002501
74.535 4.949804
74.540 4.793077
74.545 4.909228
74.550 5.131849
74.555 5.327709
74.560 5.407079
74.565 5.135511
74.570 5.164849
74.575 5.14764
74.580 5.034807
74.585 4.766861
74.590 4.736459
74.595 5.013978
74.600 5.161968
74.605 5.30969
74.610 5.425859
74.615 5.385711
74.620 5.512693
74.625 5.234823
74.630 4.913992
74.635 4.7368
74.640 4.827527
74.645 4.990196
74.650 5.047632
74.655 4.950755
74.660 5.080322
74.665 5.283798
74.670 5.228177
74.675 5.192436
74.680 4.828859
74.685 4.59722
74.690 4.525147
74.695 4.568985
74.700 4.371195
74.705 4.416547
74.710 4.090704
74.715 4.080236
74.720 4.016189
74.725 3.807307
74.730 3.670272
74.735 3.737165
74.740 3.882574
74.745 4.427974
74.750 4.758548
74.755 5.168677
74.760 5.475271
74.765 5.760161
74.770 5.871521
74.775 5.524753
74.780 5.197755
74.785 4.927347
74.790 4.510468
74.795 4.615016
74.800 4.174812
74.805 4.030647
74.810 4.299801
74.815 4.575447
74.820 4.889713
74.825 4.855635
74.830 4.478819
74.835 4.452526
74.840 4.095273
74.845 4.057169
74.850 3.75115
74.855 3.675386
74.860 3.85045
74.865 4.259417
74.870 4.809064
74.875 5.067965
74.880 5.159538
74.885 5.243917
74.890 5.277078
74.895 5.108318
74.900 5.049757
74.905 4.835326
74.910 4.774396
74.915 4.8178
74.920 5.050111
74.925 4.984277
74.930 5.078299
74.935 4.762292
74.940 4.767269
74.945 4.782417
74.950 4.766892
74.955 4.616318
74.960 4.559876
74.965 4.383613
74.970 4.5352
74.975 4.767201
74.980 4.678451
74.985 4.957994
74.990 5.091344
74.995 5.26188
75.000 5.494305
