!@!!GADDS PLOTSO FILE: Chi integration type
!@!!Title/SampleName: map-0
!@!!Comment: ?
!@!!User: Bruker Instrument Administrator
!@!!Site: University of Illinois Chicago
!@!!Frame: map-0_01_000.gfrm
!@!!Wavelengths    1.54184   1.54056   1.54439
!@!!Frame angles: 2Theta: 65.000 Omega: 50.000 Phi: 0.000 Chi: 90.000
!@!!Integration range: 2Theta: 55.000 to 75.000  Gamma: -105.000 to -75.000
!@!!Integration method: bin normalized
!@!N
!@!SS
!@!M
!@!L 0.0 0.0 0.0 0.0
!@!XDegrees
!@!YCounts
55.000 4.658587
55.005 4.215566
55.010 3.959311
55.015 4.055514
55.020 4.603246
55.025 4.942664
55.030 4.653863
55.035 4.513449
55.040 4.829464
55.045 5.065253
55.050 5.133083
55.055 5.084975
55.060 5.232343
55.065 5.375376
55.070 5.350832
55.075 4.945144
55.080 5.065469
55.085 5.155654
55.090 5.128124
55.095 4.893467
55.100 4.719305
55.105 4.78276
55.110 4.704933
55.115 4.358446
55.120 4.372894
55.125 4.320183
55.130 4.351621
55.135 4.372249
55.140 4.318306
55.145 4.64034
55.150 4.583331
55.155 4.414918
55.160 4.32758
55.165 4.234672
55.170 4.134041
55.175 4.115806
55.180 4.068236
55.185 4.265455
55.190 4.155821
55.195 4.137956
55.200 4.211471
55.205 4.419568
55.210 4.420583
55.215 3.74583
55.220 3.802034
55.225 4.104282
55.230 3.911786
55.235 4.094202
55.240 4.105781
55.245 4.276509
55.250 4.836196
55.255 4.939683
55.260 4.6106
55.265 4.652996
55.270 4.384284
55.275 4.389071
55.280 4.343378
55.285 4.545745
55.290 4.591216
55.295 5.071986
55.300 5.297147
55.305 5.400944
55.310 5.461701
55.315 5.514448
55.320 5.417938
55.325 5.590627
55.330 5.339759
55.335 5.565131
55.340 5.714748
55.345 6.021994
55.350 6.150662
55.355 5.83611
55.360 5.531397
55.365 5.300173
55.370 4.877423
55.375 4.40351
55.380 4.131734
55.385 3.865931
55.390 4.050573
55.395 4.408641
55.400 4.565614
55.405 4.919976
55.410 5.020208
55.415 5.041749
55.420 4.917426
55.425 4.728867
55.430 4.496732
55.435 4.860662
55.440 4.973593
55.445 4.933887
55.450 4.871572
55.455 5.049475
55.460 5.261377
55.465 5.025309
55.470 4.858212
55.475 4.858081
55.480 4.545003
55.485 4.424792
55.490 4.44267
55.495 4.360473
55.500 4.085582
55.505 3.556205
55.510 3.776036
55.515 4.221297
55.520 4.389954
55.525 4.311497
55.530 4.590698
55.535 5.169539
55.540 5.310143
55.545 5.102788
55.550 5.07157
55.555 4.785844
55.560 4.543779
55.565 4.304448
55.570 4.351145
55.575 4.373533
55.580 4.436284
55.585 4.364669
55.590 4.628458
55.595 4.604073
55.600 4.555635
55.605 4.762041
55.610 5.06838
55.615 5.346945
55.620 5.378388
55.625 5.42286
55.630 5.638467
55.635 5.428645
55.640 5.034264
55.645 4.953605
55.650 4.545986
55.655 4.549107
55.660 4.536406
55.665 4.485891
55.670 4.681551
55.675 4.531413
55.680 4.629863
55.685 4.827362
55.690 4.734805
55.695 4.447358
55.700 4.384925
55.705 4.493905
55.710 4.622064
55.715 4.459376
55.720 3.941573
55.725 4.075865
55.730 4.081799
55.735 4.109162
55.740 4.074663
55.745 3.866903
55.750 3.998015
55.755 3.967824
55.760 3.613154
55.765 3.619205
55.770 3.404071
55.775 3.305676
55.780 3.366767
55.785 3.557603
55.790 4.116744
55.795 4.769207
55.800 4.999904
55.805 4.933318
55.810 4.991511
55.815 4.983163
55.820 5.091488
55.825 4.953906
55.830 4.670143
55.835 4.811084
55.840 4.911494
55.845 5.002455
55.850 4.641641
55.855 4.464735
55.860 4.392438
55.865 4.588328
55.870 4.44417
55.875 4.563927
55.880 4.660392
55.885 4.750652
55.890 4.637916
55.895 4.269836
55.900 4.172583
55.905 4.10789
55.910 3.849083
55.915 3.97039
55.920 4.212618
55.925 4.17479
55.930 4.51647
55.935 4.418167
55.940 4.537787
55.945 4.604737
55.950 4.648639
55.955 4.710959
55.960 5.056772
55.965 4.746415
55.970 4.78224
55.975 4.636386
55.980 4.34933
55.985 4.282577
55.990 4.281227
55.995 4.102829
56.000 4.153952
56.005 4.291897
56.010 4.192602
56.015 4.347514
56.020 4.417262
56.025 4.082336
56.030 4.227902
56.035 4.365495
56.040 4.50461
56.045 4.719912
56.050 4.609776
56.055 4.624844
56.060 4.73727
56.065 4.570575
56.070 4.329065
56.075 4.517192
56.080 4.916875
56.085 4.826671
56.090 4.640509
56.095 4.640121
56.100 4.692094
56.105 4.746012
56.110 4.417797
56.115 4.006443
56.120 4.031353
56.125 4.122128
56.130 4.22792
56.135 4.214223
56.140 4.155771
56.145 4.380593
56.150 4.523936
56.155 4.710639
56.160 5.139357
56.165 5.271231
56.170 5.287516
56.175 5.353696
56.180 5.181724
56.185 5.180289
56.190 4.859653
56.195 4.359521
56.200 4.538516
56.205 4.379914
56.210 4.22045
56.215 4.178933
56.220 4.168935
56.225 4.601942
56.230 4.674753
56.235 4.784501
56.240 4.823807
56.245 4.967167
56.250 4.849301
56.255 4.781196
56.260 4.576548
56.265 4.428632
56.270 3.985681
56.275 3.854873
56.280 4.111136
56.285 4.154101
56.290 4.176908
56.295 4.016399
56.300 4.148465
56.305 4.56728
56.310 4.547322
56.315 4.344513
56.320 4.557635
56.325 4.837132
56.330 4.90759
56.335 5.19412
56.340 5.057607
56.345 5.110398
56.350 5.156904
56.355 5.180641
56.360 5.051119
56.365 5.073984
56.370 4.984551
56.375 5.081486
56.380 4.938777
56.385 4.874697
56.390 4.519903
56.395 4.611023
56.400 4.43614
56.405 4.227504
56.410 4.208938
56.415 4.448303
56.420 4.161467
56.425 4.415575
56.430 4.543625
56.435 4.542496
56.440 4.43887
56.445 4.375455
56.450 4.389639
56.455 4.742817
56.460 4.547176
56.465 4.626275
56.470 4.806193
56.475 4.878085
56.480 4.721717
56.485 4.749466
56.490 4.753326
56.495 4.865386
56.500 4.717238
56.505 4.759536
56.510 4.945201
56.515 4.979673
56.520 4.75159
56.525 4.889321
56.530 4.785221
56.535 4.450778
56.540 4.272133
56.545 4.296144
56.550 4.457343
56.555 4.612522
56.560 4.298749
56.565 4.35239
56.570 4.636221
56.575 4.912079
56.580 5.234203
56.585 4.89366
56.590 4.681734
56.595 4.656852
56.600 4.724436
56.605 5.020537
56.610 4.6559
56.615 4.53782
56.620 5.083107
56.625 5.322236
56.630 5.404124
56.635 5.175871
56.640 5.015382
56.645 4.928654
56.650 4.982673
56.655 4.80315
56.660 4.863612
56.665 4.919692
56.670 4.984394
56.675 5.056419
56.680 5.058413
56.685 5.13617
56.690 4.930587
56.695 4.669344
56.700 4.69184
56.705 4.494844
56.710 4.339684
56.715 4.219519
56.720 4.042749
56.725 4.068748
56.730 4.133536
56.735 4.09084
56.740 4.108256
56.745 4.517804
56.750 4.668542
56.755 4.937838
56.760 5.191367
56.765 5.062079
56.770 5.26615
56.775 5.283922
56.780 5.218484
56.785 5.289104
56.790 4.905546
56.795 4.913831
56.800 5.03353
56.805 5.234179
56.810 5.13734
56.815 4.78353
56.820 4.400375
56.825 4.359169
56.830 4.489096
56.835 4.34861
56.840 4.306715
56.845 4.670103
56.850 4.818229
56.855 4.988739
56.860 4.999808
56.865 4.888748
56.870 5.053435
56.875 4.982884
56.880 5.349896
56.885 5.449641
56.890 5.435738
56.895 5.356177
56.900 5.372844
56.905 5.284734
56.910 4.857728
56.915 4.454921
56.920 4.330656
56.925 4.186527
56.930 4.176307
56.935 4.098123
56.940 3.904188
56.945 3.909905
56.950 3.862974
56.955 4.14659
56.960 4.484795
56.965 4.508745
56.970 4.716705
56.975 5.05292
56.980 5.357975
56.985 5.404964
56.990 5.394359
56.995 5.558866
57.000 5.350499
57.005 5.295898
57.010 5.156976
57.015 5.26304
57.020 5.031399
57.025 4.796952
57.030 4.640151
57.035 5.060058
57.040 4.925872
57.045 4.774382
57.050 4.724758
57.055 5.275119
57.060 5.465411
57.065 5.411496
57.070 5.36612
57.075 5.846604
57.080 5.957949
57.085 5.943083
57.090 5.624019
57.095 5.83029
57.100 6.070251
57.105 5.870981
57.110 5.828001
57.115 5.648817
57.120 5.460252
57.125 5.238015
57.130 4.886836
57.135 4.725214
57.140 4.684569
57.145 4.525051
57.150 4.429382
57.155 4.319571
57.160 4.302675
57.165 4.317933
57.170 4.08595
57.175 3.92325
57.180 4.211392
57.185 4.47738
57.190 4.872063
57.195 4.952911
57.200 5.045299
57.205 5.322746
57.210 5.313503
57.215 5.418406
57.220 5.491445
57.225 5.46248
57.230 5.667094
57.235 5.873051
57.240 5.875392
57.245 5.646271
57.250 5.253387
57.255 5.135715
57.260 4.859594
57.265 4.631168
57.270 4.779803
57.275 4.75737
57.280 4.856173
57.285 4.949723
57.290 5.094754
57.295 5.007217
57.300 4.856944
57.305 4.508728
57.310 4.441022
57.315 4.345499
57.320 4.045053
57.325 3.968064
57.330 4.13022
57.335 4.099921
57.340 4.0814
57.345 4.357605
57.350 4.558268
57.355 4.921308
57.360 5.055927
57.365 5.287762
57.370 5.152362
57.375 5.025521
57.380 4.943015
57.385 4.580257
57.390 4.754345
57.395 5.028556
57.400 4.993741
57.405 5.129863
57.410 5.351058
57.415 5.479565
57.420 5.563749
57.425 5.0832
57.430 5.021406
57.435 5.194567
57.440 5.421726
57.445 5.372527
57.450 5.584559
57.455 5.61026
57.460 5.459412
57.465 5.457982
57.470 5.109999
57.475 4.85836
57.480 4.772177
57.485 4.584158
57.490 4.67162
57.495 4.783175
57.500 5.192388
57.505 5.442686
57.510 5.564633
57.515 5.41408
57.520 5.255937
57.525 5.254849
57.530 4.971958
57.535 4.720536
57.540 4.639517
57.545 4.77214
57.550 5.074586
57.555 5.002126
57.560 5.013032
57.565 4.774609
57.570 4.628298
57.575 4.552252
57.580 4.451007
57.585 4.549092
57.590 4.555665
57.595 4.438994
57.600 4.733608
57.605 4.871056
57.610 5.595139
57.615 5.650637
57.620 5.720569
57.625 5.872104
57.630 5.992372
57.635 5.808207
57.640 5.685202
57.645 5.276147
57.650 5.127912
57.655 4.879339
57.660 4.761998
57.665 4.616215
57.670 4.670249
57.675 4.738491
57.680 4.690435
57.685 4.677629
57.690 4.665474
57.695 4.951328
57.700 5.195527
57.705 5.220231
57.710 5.232419
57.715 5.228688
57.720 5.421273
57.725 5.489754
57.730 5.128989
57.735 4.902445
57.740 4.748446
57.745 4.529137
57.750 4.414491
57.755 4.412629
57.760 4.68693
57.765 5.122221
57.770 5.368106
57.775 5.133317
57.780 5.206981
57.785 5.170847
57.790 4.977365
57.795 4.513332
57.800 4.202392
57.805 4.072773
57.810 4.260434
57.815 4.523251
57.820 4.857656
57.825 4.88847
57.830 5.122019
57.835 5.470905
57.840 5.780157
57.845 5.786816
57.850 5.740523
57.855 5.55019
57.860 5.482574
57.865 5.356456
57.870 5.370893
57.875 5.442175
57.880 5.34912
57.885 5.136034
57.890 5.438373
57.895 5.454568
57.900 5.453262
57.905 5.010408
57.910 4.976386
57.915 4.865252
57.920 4.864547
57.925 4.871448
57.930 4.891615
57.935 4.82127
57.940 4.472413
57.945 4.688987
57.950 4.912751
57.955 4.815757
57.960 4.643324
57.965 4.504109
57.970 4.344451
57.975 4.151601
57.980 3.631739
57.985 3.635776
57.990 3.772796
57.995 3.867859
58.000 4.064457
58.005 4.230794
58.010 4.775933
58.015 4.989727
58.020 4.708905
58.025 4.559521
58.030 4.667242
58.035 4.748209
58.040 4.963811
58.045 5.214462
58.050 5.213231
58.055 5.47707
58.060 5.756095
58.065 5.789526
58.070 5.962911
58.075 5.785059
58.080 5.407537
58.085 5.333178
58.090 5.053245
58.095 5.142862
58.100 5.058451
58.105 5.325357
58.110 5.234015
58.115 5.379521
58.120 5.601913
58.125 5.657656
58.130 5.451117
58.135 5.51877
58.140 5.274329
58.145 4.956144
58.150 4.598413
58.155 4.513683
58.160 4.33901
58.165 4.101678
58.170 3.99001
58.175 4.361103
58.180 4.772703
58.185 4.768612
58.190 4.799744
58.195 5.411137
58.200 5.597413
58.205 5.481102
58.210 5.39683
58.215 5.64664
58.220 5.824704
58.225 5.843852
58.230 5.773033
58.235 6.006021
58.240 5.929526
58.245 5.666883
58.250 5.562214
58.255 5.863233
58.260 5.597442
58.265 5.175384
58.270 4.618645
58.275 4.638437
58.280 4.528783
58.285 4.304625
58.290 4.529879
58.295 4.54677
58.300 4.699707
58.305 5.101144
58.310 5.591498
58.315 6.069518
58.320 5.779037
58.325 5.223598
58.330 5.198829
58.335 5.226771
58.340 4.940658
58.345 4.320457
58.350 4.145486
58.355 4.54599
58.360 4.661308
58.365 4.60319
58.370 4.587806
58.375 4.79344
58.380 5.089256
58.385 5.253731
58.390 5.307483
58.395 5.708586
58.400 5.956824
58.405 6.243326
58.410 6.401593
58.415 6.595914
58.420 6.312856
58.425 5.911537
58.430 5.766564
58.435 5.966762
58.440 5.919075
58.445 5.838401
58.450 5.694799
58.455 5.980741
58.460 6.585166
58.465 6.419449
58.470 6.162423
58.475 6.141268
58.480 6.063412
58.485 5.885685
58.490 5.700213
58.495 5.504985
58.500 5.38784
58.505 5.366285
58.510 5.296998
58.515 5.397566
58.520 5.21929
58.525 5.168517
58.530 4.99842
58.535 5.211708
58.540 5.132768
58.545 5.125538
58.550 5.441537
58.555 5.476027
58.560 5.293509
58.565 5.119667
58.570 5.190009
58.575 5.157438
58.580 5.001374
58.585 5.154353
58.590 5.491209
58.595 6.237773
58.600 6.341151
58.605 6.277497
58.610 6.635916
58.615 6.460328
58.620 6.344882
58.625 5.93338
58.630 5.497167
58.635 5.301728
58.640 5.395145
58.645 5.091211
58.650 5.385073
58.655 5.808093
58.660 6.692341
58.665 6.884395
58.670 7.031948
58.675 7.13685
58.680 7.436242
58.685 7.403409
58.690 7.270173
58.695 7.43362
58.700 7.586603
58.705 7.807124
58.710 7.749577
58.715 7.796049
58.720 8.083426
58.725 8.245958
58.730 7.978904
58.735 8.036349
58.740 8.176155
58.745 8.314823
58.750 8.05247
58.755 8.080574
58.760 7.905527
58.765 7.614484
58.770 7.670826
58.775 7.66967
58.780 7.416044
58.785 7.269302
58.790 6.98225
58.795 7.235329
58.800 7.307753
58.805 7.07929
58.810 7.31029
58.815 7.65768
58.820 7.813588
58.825 7.946579
58.830 8.043767
58.835 8.649829
58.840 9.013872
58.845 8.959098
58.850 8.803104
58.855 8.924637
58.860 9.061141
58.865 9.127181
58.870 9.024088
58.875 8.786554
58.880 8.493157
58.885 8.697758
58.890 8.400771
58.895 8.163722
58.900 7.62009
58.905 7.618637
58.910 8.021028
58.915 8.529033
58.920 8.676252
58.925 9.355595
58.930 9.63163
58.935 9.972541
58.940 9.812169
58.945 9.468169
58.950 9.290464
58.955 9.072142
58.960 9.020822
58.965 8.962708
58.970 8.96036
58.975 9.152922
58.980 8.952718
58.985 8.965322
58.990 9.431563
58.995 9.246449
59.000 9.242541
59.005 8.920602
59.010 8.703037
59.015 8.848552
59.020 8.70586
59.025 8.068259
59.030 7.800244
59.035 7.865886
59.040 7.736615
59.045 7.53231
59.050 7.609821
59.055 7.329385
59.060 7.325573
59.065 7.306793
59.070 7.370911
59.075 7.36758
59.080 7.195044
59.085 7.177053
59.090 7.654677
59.095 7.725166
59.100 7.791579
59.105 7.780747
59.110 7.839812
59.115 8.023412
59.120 7.692506
59.125 7.154906
59.130 7.045308
59.135 6.994726
59.140 7.33662
59.145 7.822312
59.150 7.628638
59.155 8.076993
59.160 8.453469
59.165 8.274986
59.170 7.781564
59.175 7.201611
59.180 6.493462
59.185 6.728529
59.190 6.53981
59.195 6.750544
59.200 7.026881
59.205 7.116779
59.210 7.291362
59.215 7.280205
59.220 7.167414
59.225 7.189461
59.230 6.818839
59.235 6.709235
59.240 7.077701
59.245 7.516469
59.250 7.786573
59.255 7.800771
59.260 7.681261
59.265 7.799616
59.270 8.048537
59.275 7.688104
59.280 7.274465
59.285 6.988233
59.290 6.97943
59.295 6.922827
59.300 7.034591
59.305 6.826182
59.310 6.85471
59.315 6.94737
59.320 7.036194
59.325 7.202034
59.330 7.306053
59.335 7.41203
59.340 7.261806
59.345 7.332171
59.350 7.208455
59.355 7.300795
59.360 7.689151
59.365 7.850413
59.370 8.125033
59.375 8.639704
59.380 9.013814
59.385 9.468762
59.390 9.462103
59.395 9.200311
59.400 8.881416
59.405 8.59153
59.410 8.060555
59.415 7.786927
59.420 7.633541
59.425 7.800828
59.430 7.780523
59.435 7.938306
59.440 7.91903
59.445 8.376428
59.450 8.397096
59.455 8.958321
59.460 8.562085
59.465 8.516778
59.470 8.695221
59.475 8.550598
59.480 8.618693
59.485 8.646671
59.490 8.567728
59.495 8.977141
59.500 9.531442
59.505 9.534638
59.510 9.743473
59.515 9.80297
59.520 10.084126
59.525 9.883473
59.530 9.57579
59.535 9.50668
59.540 9.67491
59.545 9.704685
59.550 9.587772
59.555 9.553039
59.560 9.905968
59.565 10.250708
59.570 10.159417
59.575 10.35211
59.580 10.804688
59.585 11.012482
59.590 10.981443
59.595 11.164643
59.600 10.873848
59.605 10.903187
59.610 10.536049
59.615 10.541431
59.620 10.55438
59.625 10.628087
59.630 10.756358
59.635 11.019783
59.640 10.631883
59.645 10.77729
59.650 10.474834
59.655 10.072492
59.660 9.68263
59.665 9.409945
59.670 9.136548
59.675 9.027661
59.680 8.776859
59.685 8.975997
59.690 9.346777
59.695 9.49652
59.700 9.057494
59.705 8.819519
59.710 8.791346
59.715 8.800885
59.720 8.567777
59.725 8.449561
59.730 8.507796
59.735 8.689847
59.740 9.129869
59.745 9.289615
59.750 9.152871
59.755 8.911389
59.760 8.63489
59.765 8.61226
59.770 8.892522
59.775 8.697673
59.780 8.597948
59.785 8.358799
59.790 8.232158
59.795 7.794829
59.800 7.099319
59.805 6.509207
59.810 6.22296
59.815 6.070201
59.820 5.956074
59.825 6.092697
59.830 6.659726
59.835 7.302314
59.840 7.345228
59.845 7.221912
59.850 7.284689
59.855 7.410255
59.860 7.48152
59.865 6.821973
59.870 6.410502
59.875 6.218602
59.880 5.845289
59.885 5.859125
59.890 5.595846
59.895 5.128101
59.900 4.910916
59.905 4.725571
59.910 5.098723
59.915 5.465189
59.920 5.208004
59.925 4.998203
59.930 5.020902
59.935 5.29227
59.940 5.227753
59.945 5.365791
59.950 5.281408
59.955 5.615924
59.960 5.774346
59.965 5.783183
59.970 6.007042
59.975 6.25359
59.980 5.866646
59.985 5.797208
59.990 6.030347
59.995 5.983559
60.000 5.896957
60.005 5.746921
60.010 5.858331
60.015 6.238041
60.020 5.981504
60.025 5.60783
60.030 5.762656
60.035 5.747604
60.040 5.76754
60.045 5.475087
60.050 5.414209
60.055 5.725094
60.060 6.016728
60.065 6.182662
60.070 6.458533
60.075 6.404302
60.080 6.562597
60.085 6.190463
60.090 5.98136
60.095 5.863085
60.100 5.888544
60.105 5.356107
60.110 5.315572
60.115 4.993588
60.120 5.218513
60.125 5.278982
60.130 4.995039
60.135 4.949541
60.140 5.154656
60.145 5.215799
60.150 5.260676
60.155 5.382957
60.160 5.411983
60.165 5.757917
60.170 6.156714
60.175 6.018195
60.180 5.882569
60.185 5.794018
60.190 5.809648
60.195 5.974322
60.200 5.454848
60.205 5.062445
60.210 5.352444
60.215 5.563904
60.220 5.66139
60.225 5.322374
60.230 4.980317
60.235 5.139996
60.240 5.185287
60.245 5.059903
60.250 5.241291
60.255 5.092515
60.260 5.212522
60.265 5.376875
60.270 5.482843
60.275 5.43539
60.280 5.62037
60.285 5.260362
60.290 5.483006
60.295 5.55619
60.300 5.388405
60.305 5.354842
60.310 5.487528
60.315 4.954031
60.320 5.117571
60.325 5.04902
60.330 4.982085
60.335 5.154857
60.340 5.395642
60.345 5.496313
60.350 5.951129
60.355 5.990584
60.360 6.050214
60.365 6.372998
60.370 6.286675
60.375 5.962084
60.380 5.781648
60.385 5.573674
60.390 5.382506
60.395 5.191146
60.400 5.157393
60.405 5.147429
60.410 5.211466
60.415 5.498342
60.420 5.699348
60.425 5.535347
60.430 5.511576
60.435 5.573759
60.440 5.652126
60.445 5.561505
60.450 5.398432
60.455 5.366893
60.460 5.578459
60.465 5.596357
60.470 5.276773
60.475 5.399037
60.480 5.335856
60.485 4.924076
60.490 4.674219
60.495 4.777133
60.500 4.858584
60.505 4.809112
60.510 4.457996
60.515 4.663082
60.520 5.02663
60.525 5.036199
60.530 4.79043
60.535 4.696734
60.540 4.839849
60.545 4.751995
60.550 4.325305
60.555 4.220966
60.560 4.410909
60.565 4.309798
60.570 4.223151
60.575 4.264641
60.580 4.556299
60.585 5.017356
60.590 5.254503
60.595 5.516957
60.600 6.130171
60.605 6.196431
60.610 5.943271
60.615 5.750137
60.620 5.719421
60.625 5.766839
60.630 5.500817
60.635 5.040338
60.640 4.899781
60.645 5.114224
60.650 5.216724
60.655 5.073611
60.660 5.128923
60.665 5.265408
60.670 5.320236
60.675 5.477884
60.680 5.586697
60.685 5.498553
60.690 5.504704
60.695 5.404401
60.700 5.289119
60.705 5.280973
60.710 5.52353
60.715 5.740673
60.720 5.735832
60.725 5.664857
60.730 5.750861
60.735 5.778287
60.740 5.639928
60.745 5.191155
60.750 5.090961
60.755 4.87565
60.760 5.010833
60.765 5.062715
60.770 5.22841
60.775 5.459434
60.780 5.537944
60.785 5.723877
60.790 6.063924
60.795 5.984043
60.800 6.028404
60.805 5.834537
60.810 5.768497
60.815 5.632871
60.820 5.29368
60.825 5.092846
60.830 5.042388
60.835 4.792912
60.840 4.931551
60.845 4.919119
60.850 5.085019
60.855 5.219435
60.860 5.001451
60.865 4.892329
60.870 4.832681
60.875 4.692854
60.880 4.811898
60.885 4.806657
60.890 4.562191
60.895 4.642442
60.900 4.90843
60.905 5.376529
60.910 5.717649
60.915 5.868304
60.920 6.040977
60.925 6.558027
60.930 6.606553
60.935 6.379519
60.940 5.937681
60.945 5.898226
60.950 5.928239
60.955 5.792756
60.960 5.484248
60.965 5.45661
60.970 5.620327
60.975 5.592901
60.980 5.18852
60.985 4.840098
60.990 4.639782
60.995 4.509652
61.000 4.608359
61.005 4.624997
61.010 5.017338
61.015 5.353361
61.020 5.321022
61.025 5.222242
61.030 5.235198
61.035 5.164321
61.040 5.061533
61.045 4.935532
61.050 4.637846
61.055 4.753169
61.060 5.07031
61.065 5.552962
61.070 5.740784
61.075 5.687918
61.080 5.614139
61.085 5.812814
61.090 5.955933
61.095 6.091184
61.100 5.698034
61.105 5.296559
61.110 4.767253
61.115 4.531353
61.120 4.332058
61.125 4.533312
61.130 4.833245
61.135 4.853563
61.140 5.003402
61.145 5.301955
61.150 5.412062
61.155 5.296132
61.160 4.763507
61.165 4.330098
61.170 4.325953
61.175 4.512996
61.180 4.286128
61.185 4.363152
61.190 4.564723
61.195 4.680149
61.200 4.753245
61.205 4.837947
61.210 5.192434
61.215 5.337083
61.220 5.463916
61.225 5.407955
61.230 5.509394
61.235 5.343209
61.240 5.227484
61.245 4.877127
61.250 5.005411
61.255 4.957572
61.260 4.836071
61.265 4.984747
61.270 5.105807
61.275 5.13792
61.280 5.349153
61.285 5.137475
61.290 5.196754
61.295 5.288947
61.300 5.08708
61.305 5.207607
61.310 5.084907
61.315 5.00891
61.320 5.190157
61.325 5.134411
61.330 5.078301
61.335 5.132037
61.340 4.980947
61.345 5.106194
61.350 4.934723
61.355 4.66766
61.360 4.691298
61.365 4.824444
61.370 4.826519
61.375 4.866228
61.380 4.719038
61.385 4.67477
61.390 4.804229
61.395 4.675212
61.400 4.360253
61.405 4.362424
61.410 4.566395
61.415 4.710267
61.420 4.94774
61.425 4.965771
61.430 5.241493
61.435 5.244144
61.440 5.069008
61.445 5.160637
61.450 5.344107
61.455 5.490377
61.460 5.504641
61.465 5.465352
61.470 5.445576
61.475 5.31597
61.480 5.071275
61.485 5.144376
61.490 5.102513
61.495 5.000305
61.500 5.061322
61.505 5.118747
61.510 4.809886
61.515 4.827289
61.520 4.656054
61.525 4.381152
61.530 4.444239
61.535 4.635048
61.540 5.035241
61.545 5.363575
61.550 5.253526
61.555 4.880783
61.560 4.954144
61.565 4.77094
61.570 4.664476
61.575 4.416759
61.580 4.00501
61.585 4.044386
61.590 4.187271
61.595 4.228038
61.600 4.472306
61.605 4.401352
61.610 4.470555
61.615 4.809658
61.620 4.715284
61.625 4.772555
61.630 4.589838
61.635 4.571058
61.640 4.453475
61.645 4.353398
61.650 4.428604
61.655 4.70559
61.660 4.750232
61.665 4.943171
61.670 4.821828
61.675 4.969214
61.680 4.965475
61.685 5.231038
61.690 5.16322
61.695 5.29129
61.700 5.179754
61.705 5.077899
61.710 5.075868
61.715 5.307957
61.720 5.337632
61.725 5.302619
61.730 5.084751
61.735 5.258119
61.740 5.356964
61.745 5.16009
61.750 4.689245
61.755 4.54755
61.760 4.643618
61.765 5.084707
61.770 5.209866
61.775 5.247919
61.780 5.566312
61.785 5.715772
61.790 5.461129
61.795 5.4259
61.800 5.145938
61.805 4.644648
61.810 4.609229
61.815 4.653723
61.820 4.955049
61.825 5.395535
61.830 5.538172
61.835 5.556456
61.840 5.804794
61.845 5.783737
61.850 5.722395
61.855 5.678892
61.860 5.248586
61.865 5.125396
61.870 5.425938
61.875 5.353657
61.880 5.419763
61.885 5.200972
61.890 4.841198
61.895 5.147408
61.900 5.406872
61.905 5.16303
61.910 4.960032
61.915 4.750847
61.920 4.978299
61.925 5.283177
61.930 5.13033
61.935 4.781977
61.940 4.892351
61.945 5.275261
61.950 5.475686
61.955 5.127039
61.960 4.849924
61.965 4.48681
61.970 4.519342
61.975 4.520495
61.980 4.320822
61.985 4.506687
61.990 5.038801
61.995 5.254486
62.000 5.612175
62.005 5.736487
62.010 5.934797
62.015 5.912199
62.020 5.599922
62.025 5.244085
62.030 5.275359
62.035 5.42624
62.040 5.363963
62.045 5.349585
62.050 5.214274
62.055 5.542025
62.060 5.534417
62.065 5.503957
62.070 5.249156
62.075 5.174006
62.080 5.17329
62.085 5.292314
62.090 4.993161
62.095 5.090558
62.100 4.700904
62.105 4.869708
62.110 4.913321
62.115 4.968671
62.120 5.332893
62.125 5.340807
62.130 5.330791
62.135 5.630657
62.140 5.572481
62.145 5.605135
62.150 5.438793
62.155 5.037503
62.160 5.082181
62.165 5.172659
62.170 5.111472
62.175 4.743687
62.180 4.615403
62.185 4.596035
62.190 4.499305
62.195 4.814756
62.200 4.868268
62.205 4.959961
62.210 5.474409
62.215 5.548558
62.220 5.553044
62.225 5.833394
62.230 5.537531
62.235 5.399531
62.240 5.335296
62.245 5.171885
62.250 5.051961
62.255 4.948532
62.260 5.107929
62.265 5.496163
62.270 5.464322
62.275 5.431522
62.280 5.542752
62.285 5.524831
62.290 5.550269
62.295 5.396246
62.300 5.168594
62.305 5.263229
62.310 5.395356
62.315 5.368985
62.320 5.834424
62.325 6.144317
62.330 5.852403
62.335 5.87927
62.340 5.841005
62.345 5.79842
62.350 5.89428
62.355 5.812942
62.360 5.206658
62.365 5.128994
62.370 4.983955
62.375 4.926734
62.380 5.09086
62.385 5.266483
62.390 5.266373
62.395 6.029593
62.400 6.285861
62.405 6.306495
62.410 6.044785
62.415 5.770542
62.420 5.63552
62.425 5.527133
62.430 4.956852
62.435 4.866024
62.440 4.907254
62.445 5.023899
62.450 4.926831
62.455 4.74143
62.460 4.823573
62.465 5.064293
62.470 5.069972
62.475 5.006903
62.480 4.830123
62.485 4.712838
62.490 4.774727
62.495 4.712644
62.500 4.226696
62.505 4.346287
62.510 4.647104
62.515 4.876639
62.520 5.130954
62.525 5.323334
62.530 5.492257
62.535 5.755861
62.540 5.73688
62.545 5.989454
62.550 6.118491
62.555 5.804558
62.560 5.383711
62.565 4.833666
62.570 4.97261
62.575 4.901226
62.580 4.858865
62.585 4.93113
62.590 5.141715
62.595 5.222505
62.600 5.509433
62.605 5.510667
62.610 5.329246
62.615 5.014247
62.620 4.903262
62.625 4.961798
62.630 5.130522
62.635 5.330369
62.640 5.391326
62.645 5.465303
62.650 5.397705
62.655 5.474951
62.660 5.367346
62.665 5.336933
62.670 5.355992
62.675 5.314369
62.680 5.317782
62.685 5.314763
62.690 5.27927
62.695 5.564627
62.700 5.559438
62.705 5.457349
62.710 5.542869
62.715 5.635707
62.720 5.640144
62.725 5.672705
62.730 5.575656
62.735 5.590169
62.740 5.493684
62.745 5.664674
62.750 5.761405
62.755 6.118697
62.760 6.107034
62.765 6.067799
62.770 6.057684
62.775 6.09959
62.780 5.801897
62.785 5.878864
62.790 5.627031
62.795 5.444969
62.800 5.366308
62.805 5.692277
62.810 5.944362
62.815 5.938969
62.820 5.578179
62.825 5.68451
62.830 5.999254
62.835 6.162586
62.840 5.819946
62.845 5.300808
62.850 5.129769
62.855 5.222412
62.860 4.751397
62.865 4.322594
62.870 4.197102
62.875 4.363958
62.880 5.072092
62.885 5.251004
62.890 5.068924
62.895 5.293601
62.900 5.146643
62.905 5.053751
62.910 4.730299
62.915 4.102928
62.920 3.948512
62.925 4.059133
62.930 4.356223
62.935 4.818932
62.940 4.989558
62.945 5.302943
62.950 5.648132
62.955 5.886196
62.960 5.825241
62.965 5.738021
62.970 5.305409
62.975 5.032504
62.980 5.016086
62.985 5.277644
62.990 5.514847
62.995 5.654872
63.000 5.55646
63.005 5.926802
63.010 6.130828
63.015 6.071209
63.020 5.932461
63.025 5.793112
63.030 5.90945
63.035 5.638976
63.040 5.493033
63.045 5.496144
63.050 5.464103
63.055 5.172887
63.060 5.372269
63.065 5.49188
63.070 5.766122
63.075 5.726667
63.080 5.682318
63.085 5.840567
63.090 6.290556
63.095 5.921607
63.100 5.66966
63.105 5.692423
63.110 5.899462
63.115 5.740969
63.120 5.23502
63.125 4.947151
63.130 5.09585
63.135 5.007715
63.140 4.92931
63.145 4.772391
63.150 5.031662
63.155 5.188431
63.160 5.007686
63.165 5.196661
63.170 5.597529
63.175 5.83071
63.180 5.835057
63.185 5.67017
63.190 5.926139
63.195 6.172539
63.200 5.956177
63.205 6.010894
63.210 6.303076
63.215 6.430489
63.220 6.417281
63.225 6.470118
63.230 6.747549
63.235 6.761924
63.240 6.280962
63.245 5.893259
63.250 5.896038
63.255 5.812272
63.260 5.630804
63.265 5.101275
63.270 5.278436
63.275 5.332677
63.280 5.308597
63.285 5.12435
63.290 4.874669
63.295 4.774658
63.300 4.62464
63.305 4.578628
63.310 4.753931
63.315 4.57387
63.320 4.733358
63.325 4.840656
63.330 4.931489
63.335 5.386897
63.340 5.22878
63.345 5.212493
63.350 5.167382
63.355 5.251136
63.360 5.330135
63.365 5.41747
63.370 5.469254
63.375 5.510005
63.380 5.404696
63.385 5.267719
63.390 5.302621
63.395 5.459938
63.400 5.72619
63.405 5.645382
63.410 5.633629
63.415 5.911066
63.420 6.353555
63.425 6.256412
63.430 5.959318
63.435 5.506135
63.440 5.301097
63.445 5.18571
63.450 5.028989
63.455 4.578284
63.460 4.665813
63.465 4.599685
63.470 4.471445
63.475 4.186695
63.480 4.411307
63.485 4.421649
63.490 4.60166
63.495 4.594543
63.500 4.676826
63.505 4.974117
63.510 5.25159
63.515 4.996096
63.520 4.992973
63.525 5.017463
63.530 5.050218
63.535 5.168888
63.540 5.129908
63.545 5.322782
63.550 5.615982
63.555 5.761795
63.560 5.697721
63.565 5.400564
63.570 5.432352
63.575 5.586912
63.580 5.185967
63.585 4.855277
63.590 4.571744
63.595 4.697837
63.600 4.953318
63.605 5.122514
63.610 5.003871
63.615 5.032203
63.620 5.260118
63.625 5.54238
63.630 5.294832
63.635 5.307946
63.640 5.143749
63.645 5.321998
63.650 5.283515
63.655 5.031751
63.660 4.883642
63.665 5.344012
63.670 5.376845
63.675 5.121266
63.680 4.846316
63.685 4.942131
63.690 5.037727
63.695 5.303407
63.700 4.949916
63.705 5.178108
63.710 5.349805
63.715 5.392578
63.720 5.198151
63.725 4.88752
63.730 4.612498
63.735 4.778625
63.740 4.774311
63.745 4.849728
63.750 5.18129
63.755 5.525296
63.760 5.939416
63.765 6.234529
63.770 6.005927
63.775 6.033147
63.780 6.113163
63.785 6.013453
63.790 5.968866
63.795 5.786583
63.800 5.895788
63.805 5.985602
63.810 6.000544
63.815 6.144152
63.820 6.015715
63.825 6.206186
63.830 6.391528
63.835 6.277872
63.840 6.432325
63.845 6.050034
63.850 5.929681
63.855 5.896848
63.860 5.748374
63.865 5.523463
63.870 5.254439
63.875 5.161223
63.880 5.451725
63.885 5.522559
63.890 5.80552
63.895 5.481925
63.900 5.45513
63.905 5.420504
63.910 5.373428
63.915 5.339373
63.920 5.474286
63.925 5.293217
63.930 5.544524
63.935 5.375176
63.940 5.728964
63.945 6.057529
63.950 5.764421
63.955 5.355338
63.960 5.26751
63.965 5.177974
63.970 5.267536
63.975 4.982106
63.980 4.64501
63.985 4.91859
63.990 4.925625
63.995 5.156125
64.000 4.990718
64.005 4.828773
64.010 4.781542
64.015 4.796875
64.020 4.422242
64.025 4.425862
64.030 4.434035
64.035 4.80106
64.040 4.965932
64.045 4.906834
64.050 5.068541
64.055 5.354297
64.060 5.895425
64.065 5.939664
64.070 6.171546
64.075 6.348064
64.080 6.487604
64.085 6.285473
64.090 6.12045
64.095 5.754172
64.100 5.881606
64.105 5.662817
64.110 5.493236
64.115 5.206329
64.120 5.206922
64.125 5.355287
64.130 5.359997
64.135 5.149555
64.140 5.009913
64.145 5.285333
64.150 5.620091
64.155 5.73224
64.160 5.687276
64.165 5.646086
64.170 5.810483
64.175 6.086209
64.180 5.706616
64.185 5.652342
64.190 5.552676
64.195 5.387208
64.200 5.557498
64.205 5.327713
64.210 5.535159
64.215 6.081975
64.220 6.467788
64.225 6.740791
64.230 6.826232
64.235 6.623981
64.240 7.072791
64.245 6.831028
64.250 6.643567
64.255 6.347611
64.260 6.310187
64.265 6.13262
64.270 6.163394
64.275 5.722277
64.280 5.655085
64.285 5.717079
64.290 5.743251
64.295 5.908687
64.300 6.072652
64.305 6.25531
64.310 6.747513
64.315 7.015018
64.320 6.765909
64.325 6.466101
64.330 6.248592
64.335 6.462285
64.340 6.55325
64.345 6.113463
64.350 6.113586
64.355 6.380471
64.360 7.114744
64.365 7.143122
64.370 7.104528
64.375 6.91248
64.380 6.755115
64.385 6.768096
64.390 6.808249
64.395 6.48186
64.400 6.628411
64.405 6.632703
64.410 7.092929
64.415 7.855528
64.420 7.856853
64.425 7.959208
64.430 8.14672
64.435 8.415264
64.440 8.722144
64.445 8.592718
64.450 8.366977
64.455 8.599711
64.460 8.797182
64.465 8.921956
64.470 9.059971
64.475 8.712183
64.480 8.683514
64.485 8.746161
64.490 8.775064
64.495 8.703607
64.500 8.444865
64.505 8.172366
64.510 8.524529
64.515 8.443032
64.520 8.775718
64.525 8.794472
64.530 8.713804
64.535 8.794787
64.540 9.299908
64.545 9.400308
64.550 10.02224
64.555 9.817123
64.560 9.669801
64.565 10.231914
64.570 10.308336
64.575 9.895574
64.580 9.782883
64.585 9.222466
64.590 9.529736
64.595 9.902651
64.600 10.000813
64.605 10.333723
64.610 10.883338
64.615 11.27716
64.620 12.069518
64.625 12.686705
64.630 13.00869
64.635 13.24314
64.640 13.467936
64.645 13.1436
64.650 13.141766
64.655 13.039627
64.660 12.743464
64.665 13.08429
64.670 13.12291
64.675 13.195736
64.680 13.417815
64.685 13.502295
64.690 13.302556
64.695 13.211287
64.700 13.506854
64.705 14.090963
64.710 14.813605
64.715 14.893448
64.720 15.319632
64.725 15.977268
64.730 15.696431
64.735 14.872157
64.740 14.184928
64.745 13.753584
64.750 13.466531
64.755 12.95473
64.760 12.544985
64.765 12.609185
64.770 12.523613
64.775 12.958799
64.780 12.866858
64.785 13.106462
64.790 13.238236
64.795 13.528369
64.800 13.704321
64.805 14.052233
64.810 13.513245
64.815 13.273269
64.820 13.506515
64.825 13.478226
64.830 13.309794
64.835 13.266358
64.840 12.798376
64.845 12.677663
64.850 12.699658
64.855 12.49387
64.860 12.564733
64.865 12.079654
64.870 11.929297
64.875 11.919544
64.880 12.073383
64.885 12.174273
64.890 12.179276
64.895 11.510594
64.900 11.735311
64.905 11.668715
64.910 12.101171
64.915 12.164332
64.920 12.380294
64.925 12.498078
64.930 12.879884
64.935 12.747351
64.940 12.591701
64.945 11.902351
64.950 11.463068
64.955 10.60745
64.960 10.558267
64.965 10.516155
64.970 10.38958
64.975 10.441537
64.980 10.328778
64.985 9.929818
64.990 10.015941
64.995 9.677167
65.000 9.428735
65.005 9.801453
65.010 9.748995
65.015 10.022336
65.020 10.572314
65.025 10.607073
65.030 10.787579
65.035 11.35991
65.040 11.340836
65.045 11.674179
65.050 11.491239
65.055 10.962448
65.060 11.109874
65.065 11.189277
65.070 10.833319
65.075 9.922275
65.080 9.509497
65.085 9.745624
65.090 10.300653
65.095 10.021959
65.100 9.65648
65.105 9.548016
65.110 9.897874
65.115 9.964461
65.120 9.950187
65.125 9.367257
65.130 9.418485
65.135 9.480602
65.140 9.877521
65.145 9.385843
65.150 8.897924
65.155 9.044671
65.160 9.400819
65.165 8.965067
65.170 8.84775
65.175 8.184961
65.180 8.575727
65.185 8.507009
65.190 8.201658
65.195 8.416676
65.200 8.762555
65.205 8.844131
65.210 9.495017
65.215 9.712759
65.220 10.04643
65.225 9.840422
65.230 9.96285
65.235 9.963332
65.240 10.250981
65.245 9.993984
65.250 10.699921
65.255 11.648754
65.260 11.987739
65.265 11.845483
65.270 11.86093
65.275 11.704803
65.280 12.037731
65.285 12.347826
65.290 11.853844
65.295 11.997191
65.300 12.234571
65.305 12.616578
65.310 12.677138
65.315 12.442057
65.320 11.978076
65.325 12.375819
65.330 12.987979
65.335 13.443158
65.340 13.614413
65.345 13.749587
65.350 14.274036
65.355 14.385559
65.360 14.339324
65.365 14.118966
65.370 13.876838
65.375 14.215352
65.380 14.691883
65.385 14.521485
65.390 14.620844
65.395 14.943568
65.400 15.211224
65.405 15.466998
65.410 15.553153
65.415 15.591303
65.420 16.134581
65.425 16.451904
65.430 16.573795
65.435 16.905869
65.440 16.852062
65.445 16.475832
65.450 16.612604
65.455 16.423912
65.460 16.429426
65.465 16.154873
65.470 15.961835
65.475 16.322962
65.480 16.608017
65.485 16.586796
65.490 17.015738
65.495 17.111963
65.500 17.533239
65.505 17.678093
65.510 17.431532
65.515 17.57023
65.520 17.081503
65.525 16.651093
65.530 17.088314
65.535 17.077076
65.540 16.752893
65.545 16.904293
65.550 16.62081
65.555 17.01495
65.560 17.565928
65.565 17.229151
65.570 16.864706
65.575 17.076536
65.580 16.648787
65.585 16.89554
65.590 16.94841
65.595 16.523359
65.600 16.348461
65.605 16.511135
65.610 16.426237
65.615 17.00247
65.620 16.617994
65.625 16.256163
65.630 16.114807
65.635 15.690412
65.640 15.386827
65.645 15.020066
65.650 14.067022
65.655 14.106153
65.660 13.831818
65.665 13.728467
65.670 13.517369
65.675 12.917764
65.680 13.094531
65.685 13.476034
65.690 13.197579
65.695 12.978699
65.700 12.880267
65.705 12.987425
65.710 12.829065
65.715 12.335856
65.720 11.752307
65.725 11.974489
65.730 11.878802
65.735 11.421432
65.740 10.669184
65.745 10.442796
65.750 9.985439
65.755 10.136332
65.760 9.817998
65.765 9.572083
65.770 9.300836
65.775 9.387992
65.780 9.355662
65.785 9.651795
65.790 8.939208
65.795 8.346145
65.800 8.219944
65.805 7.927974
65.810 7.763987
65.815 7.757881
65.820 8.00842
65.825 8.29287
65.830 8.704247
65.835 8.502341
65.840 8.396403
65.845 8.084805
65.850 7.482601
65.855 6.863956
65.860 6.815695
65.865 6.591763
65.870 6.341715
65.875 6.309674
65.880 6.426441
65.885 6.537045
65.890 6.649206
65.895 6.630174
65.900 6.568092
65.905 6.609057
65.910 6.425795
65.915 6.594032
65.920 6.968033
65.925 6.932712
65.930 6.925314
65.935 6.824426
65.940 7.005878
65.945 6.647988
65.950 6.419811
65.955 6.151015
65.960 6.06055
65.965 5.72938
65.970 6.149829
65.975 6.311813
65.980 6.859041
65.985 6.670653
65.990 6.769627
65.995 7.0587
66.000 7.302008
66.005 7.212483
66.010 6.727794
66.015 6.284632
66.020 6.628592
66.025 6.273802
66.030 5.739768
66.035 5.469722
66.040 5.163373
66.045 5.316764
66.050 5.702487
66.055 5.85572
66.060 5.95483
66.065 6.138841
66.070 6.227922
66.075 6.414555
66.080 6.418666
66.085 6.186934
66.090 6.160606
66.095 6.01399
66.100 6.267839
66.105 6.417212
66.110 6.406035
66.115 6.456941
66.120 6.552696
66.125 6.512844
66.130 6.708652
66.135 6.289436
66.140 6.134569
66.145 6.074294
66.150 5.595102
66.155 5.328721
66.160 5.103765
66.165 4.823339
66.170 5.00483
66.175 4.639667
66.180 4.707596
66.185 5.246859
66.190 5.019125
66.195 4.874486
66.200 4.908362
66.205 4.967273
66.210 5.009713
66.215 4.885152
66.220 4.763808
66.225 4.962475
66.230 4.975319
66.235 5.139291
66.240 4.982607
66.245 5.432496
66.250 5.760205
66.255 6.009678
66.260 6.333001
66.265 6.482581
66.270 6.39501
66.275 6.468045
66.280 6.225745
66.285 6.184451
66.290 5.943707
66.295 5.719667
66.300 5.781518
66.305 5.737256
66.310 5.727608
66.315 5.515787
66.320 5.410221
66.325 5.237185
66.330 5.225245
66.335 5.23103
66.340 5.033337
66.345 5.005811
66.350 4.899502
66.355 4.80816
66.360 5.268665
66.365 5.366614
66.370 5.582359
66.375 5.973731
66.380 6.000708
66.385 6.284704
66.390 6.14532
66.395 5.815143
66.400 5.83746
66.405 5.769271
66.410 5.822333
66.415 5.714551
66.420 5.517063
66.425 5.723282
66.430 5.831111
66.435 5.64408
66.440 5.573308
66.445 5.50105
66.450 5.563347
66.455 5.806111
66.460 5.877043
66.465 5.855474
66.470 6.066485
66.475 6.168183
66.480 6.247096
66.485 6.378261
66.490 6.084619
66.495 6.071985
66.500 6.12434
66.505 5.913673
66.510 5.7703
66.515 5.486033
66.520 5.649706
66.525 5.985684
66.530 5.90084
66.535 5.762644
66.540 5.743517
66.545 5.609256
66.550 5.473395
66.555 5.361502
66.560 5.418475
66.565 5.358773
66.570 5.703824
66.575 5.828728
66.580 5.845582
66.585 5.844042
66.590 5.62466
66.595 5.397079
66.600 5.391448
66.605 5.03477
66.610 5.315199
66.615 5.45921
66.620 5.650633
66.625 5.723311
66.630 5.856187
66.635 6.057388
66.640 6.132173
66.645 5.676837
66.650 5.459023
66.655 5.296783
66.660 4.870754
66.665 4.834769
66.670 4.856217
66.675 5.133433
66.680 5.304739
66.685 5.609561
66.690 5.812995
66.695 6.009575
66.700 5.979644
66.705 5.618694
66.710 5.142884
66.715 5.072714
66.720 5.020547
66.725 4.922304
66.730 4.926566
66.735 4.857055
66.740 5.250353
66.745 5.857784
66.750 5.699307
66.755 5.470843
66.760 5.658619
66.765 6.139001
66.770 6.340116
66.775 5.866026
66.780 5.363495
66.785 5.507473
66.790 5.661993
66.795 5.606491
66.800 5.087661
66.805 4.7271
66.810 4.866999
66.815 4.646178
66.820 4.62519
66.825 4.514493
66.830 4.363365
66.835 4.636787
66.840 4.821194
66.845 5.150774
66.850 5.492141
66.855 5.34019
66.860 5.402016
66.865 5.80875
66.870 5.843636
66.875 5.811284
66.880 5.294883
66.885 5.15173
66.890 5.477315
66.895 5.395074
66.900 4.735989
66.905 4.220703
66.910 4.406757
66.915 4.751536
66.920 5.003195
66.925 5.013047
66.930 4.805976
66.935 5.080009
66.940 5.117396
66.945 4.851321
66.950 4.70275
66.955 4.246167
66.960 4.25548
66.965 4.624938
66.970 4.614181
66.975 5.122598
66.980 5.282523
66.985 5.525408
66.990 5.747141
66.995 5.81642
67.000 5.879292
67.005 6.002377
67.010 5.751999
67.015 5.714237
67.020 6.07837
67.025 6.13518
67.030 5.76657
67.035 5.640046
67.040 5.609024
67.045 5.400366
67.050 5.119132
67.055 4.657078
67.060 4.552352
67.065 4.835617
67.070 4.669791
67.075 4.500637
67.080 4.367574
67.085 4.481701
67.090 4.729231
67.095 4.703137
67.100 4.507699
67.105 4.834826
67.110 5.157959
67.115 5.677266
67.120 5.823506
67.125 5.813278
67.130 6.067142
67.135 6.371728
67.140 6.30825
67.145 6.226297
67.150 6.181623
67.155 5.96455
67.160 5.813265
67.165 5.909718
67.170 6.053599
67.175 6.01552
67.180 5.952911
67.185 5.82504
67.190 5.704399
67.195 5.449741
67.200 4.947812
67.205 4.593193
67.210 4.597149
67.215 4.584035
67.220 4.350657
67.225 4.240117
67.230 4.539784
67.235 4.640375
67.240 4.524253
67.245 4.630124
67.250 4.548616
67.255 4.859563
67.260 5.013611
67.265 5.113232
67.270 4.931207
67.275 4.932365
67.280 4.883787
67.285 4.846067
67.290 4.879602
67.295 4.854105
67.300 4.88762
67.305 5.361581
67.310 5.373693
67.315 5.212255
67.320 5.297112
67.325 5.188603
67.330 5.206996
67.335 5.231723
67.340 5.171974
67.345 5.205276
67.350 5.259899
67.355 5.619649
67.360 5.720862
67.365 5.630167
67.370 5.604351
67.375 5.230173
67.380 5.339251
67.385 5.435285
67.390 5.021751
67.395 5.160062
67.400 5.209027
67.405 5.174546
67.410 5.181808
67.415 4.870811
67.420 4.707933
67.425 4.724858
67.430 4.65906
67.435 4.900864
67.440 4.963673
67.445 5.277207
67.450 5.69507
67.455 5.797152
67.460 5.868331
67.465 5.88029
67.470 5.812861
67.475 5.783255
67.480 5.695233
67.485 5.173935
67.490 5.10095
67.495 4.839739
67.500 4.929097
67.505 4.758971
67.510 4.857615
67.515 4.85194
67.520 5.008816
67.525 4.907329
67.530 5.093653
67.535 4.878975
67.540 4.996757
67.545 5.052927
67.550 5.336702
67.555 5.528514
67.560 5.549207
67.565 5.384165
67.570 5.5461
67.575 5.467773
67.580 5.413887
67.585 5.121744
67.590 5.422202
67.595 5.79332
67.600 6.002185
67.605 5.794363
67.610 5.862557
67.615 5.830132
67.620 5.901373
67.625 5.539396
67.630 5.14218
67.635 5.218949
67.640 5.246738
67.645 5.231403
67.650 5.48323
67.655 5.664768
67.660 5.848004
67.665 5.985323
67.670 6.112705
67.675 6.448931
67.680 6.45493
67.685 6.259583
67.690 5.925554
67.695 5.89311
67.700 6.206841
67.705 5.932501
67.710 5.681655
67.715 5.36923
67.720 5.553735
67.725 5.899493
67.730 5.419738
67.735 5.180287
67.740 5.226501
67.745 5.108423
67.750 4.860109
67.755 4.840446
67.760 4.870788
67.765 5.120342
67.770 5.057864
67.775 5.104991
67.780 5.267189
67.785 5.647912
67.790 5.435461
67.795 5.335119
67.800 5.594011
67.805 5.694715
67.810 5.55241
67.815 5.898263
67.820 6.190955
67.825 6.210086
67.830 6.465359
67.835 6.296368
67.840 6.413222
67.845 6.292915
67.850 6.306127
67.855 6.311128
67.860 6.376142
67.865 6.567153
67.870 6.842081
67.875 7.286833
67.880 7.632957
67.885 7.783529
67.890 7.973794
67.895 8.216676
67.900 8.201328
67.905 8.113566
67.910 7.751828
67.915 8.018912
67.920 8.03646
67.925 8.053398
67.930 7.878628
67.935 8.017538
67.940 8.253326
67.945 8.596942
67.950 8.751386
67.955 8.814771
67.960 9.02775
67.965 9.400631
67.970 9.479697
67.975 9.41233
67.980 9.511646
67.985 9.210626
67.990 8.810617
67.995 8.90544
68.000 8.755184
68.005 8.641836
68.010 8.415437
68.015 8.151403
68.020 8.418806
68.025 8.604119
68.030 8.641294
68.035 9.254767
68.040 9.38386
68.045 9.514154
68.050 9.596798
68.055 9.439611
68.060 9.900229
68.065 9.484621
68.070 8.74286
68.075 9.00974
68.080 9.051454
68.085 9.16931
68.090 9.33976
68.095 8.85897
68.100 9.140164
68.105 9.508895
68.110 9.381432
68.115 9.19416
68.120 9.112546
68.125 9.202262
68.130 9.253539
68.135 9.449053
68.140 9.16407
68.145 9.211395
68.150 9.384278
68.155 9.342937
68.160 9.363955
68.165 9.759019
68.170 10.210285
68.175 10.134409
68.180 9.779608
68.185 9.690207
68.190 9.555247
68.195 9.522647
68.200 9.187654
68.205 9.025547
68.210 9.331405
68.215 10.036909
68.220 10.339263
68.225 10.735826
68.230 10.765256
68.235 10.383912
68.240 9.886927
68.245 9.583569
68.250 9.306405
68.255 8.828944
68.260 8.519031
68.265 8.696232
68.270 9.046942
68.275 9.077833
68.280 8.903647
68.285 8.811604
68.290 9.000579
68.295 8.823259
68.300 8.67727
68.305 8.576533
68.310 8.364738
68.315 8.253389
68.320 7.839991
68.325 7.809472
68.330 8.139104
68.335 8.002731
68.340 7.978891
68.345 8.367743
68.350 8.773414
68.355 8.938209
68.360 8.536309
68.365 8.161973
68.370 7.91626
68.375 7.979681
68.380 7.803129
68.385 7.671774
68.390 7.659316
68.395 7.696172
68.400 8.121384
68.405 8.213816
68.410 7.786043
68.415 7.795677
68.420 7.984691
68.425 8.050764
68.430 8.336628
68.435 8.1486
68.440 8.31216
68.445 8.36212
68.450 8.318282
68.455 7.701992
68.460 7.517926
68.465 7.419649
68.470 7.566979
68.475 7.663908
68.480 7.769072
68.485 7.808868
68.490 8.298738
68.495 8.408131
68.500 7.951939
68.505 7.633444
68.510 7.259375
68.515 7.173795
68.520 7.089085
68.525 7.150592
68.530 7.439412
68.535 7.696723
68.540 7.871472
68.545 7.973115
68.550 7.997956
68.555 8.104761
68.560 8.093628
68.565 8.022784
68.570 8.130972
68.575 8.217311
68.580 7.983043
68.585 7.868671
68.590 7.641984
68.595 7.494747
68.600 7.350691
68.605 7.210265
68.610 7.118642
68.615 7.713465
68.620 7.942407
68.625 8.232201
68.630 8.322569
68.635 8.402322
68.640 8.489872
68.645 8.368321
68.650 7.97671
68.655 7.702918
68.660 7.458009
68.665 7.461141
68.670 7.858102
68.675 8.159185
68.680 8.318089
68.685 8.495508
68.690 8.424047
68.695 8.532575
68.700 8.635092
68.705 8.458933
68.710 8.190445
68.715 8.645561
68.720 9.149197
68.725 9.225846
68.730 9.388437
68.735 9.348301
68.740 9.604382
68.745 9.962915
68.750 9.60972
68.755 9.8271
68.760 10.4984
68.765 10.817292
68.770 10.814214
68.775 10.85742
68.780 11.015882
68.785 11.362332
68.790 11.058409
68.795 11.154155
68.800 11.309164
68.805 11.517522
68.810 11.444798
68.815 11.403852
68.820 11.208648
68.825 11.433902
68.830 11.682186
68.835 11.57308
68.840 11.999047
68.845 12.053138
68.850 12.588853
68.855 12.877237
68.860 12.904833
68.865 12.581122
68.870 12.832242
68.875 12.698077
68.880 12.684489
68.885 12.384595
68.890 12.362031
68.895 12.469872
68.900 12.193955
68.905 11.830234
68.910 11.820467
68.915 11.603815
68.920 11.750566
68.925 12.21314
68.930 11.915318
68.935 12.085635
68.940 12.298614
68.945 12.290401
68.950 12.073479
68.955 11.72485
68.960 11.214466
68.965 11.267321
68.970 11.510855
68.975 11.140663
68.980 10.959071
68.985 10.826505
68.990 10.594975
68.995 10.576523
69.000 10.552932
69.005 10.499306
69.010 10.854753
69.015 10.765846
69.020 10.481377
69.025 10.819883
69.030 10.830141
69.035 10.952094
69.040 10.487765
69.045 10.091665
69.050 10.678367
69.055 10.763375
69.060 10.749796
69.065 10.684397
69.070 10.987253
69.075 11.23569
69.080 10.942786
69.085 10.546684
69.090 10.546087
69.095 10.466776
69.100 10.305684
69.105 9.729322
69.110 9.334486
69.115 9.700566
69.120 9.620683
69.125 9.26755
69.130 9.069753
69.135 9.008582
69.140 9.222904
69.145 9.166559
69.150 8.695039
69.155 8.839727
69.160 9.088408
69.165 8.727489
69.170 8.338862
69.175 7.933593
69.180 8.017794
69.185 8.217853
69.190 8.191439
69.195 8.108394
69.200 8.122528
69.205 8.104654
69.210 7.599005
69.215 7.268199
69.220 6.995612
69.225 7.017654
69.230 6.917881
69.235 6.951787
69.240 7.255205
69.245 7.659019
69.250 7.933223
69.255 7.911413
69.260 7.523231
69.265 7.194114
69.270 6.93871
69.275 6.594567
69.280 6.38638
69.285 6.42053
69.290 6.473364
69.295 6.653315
69.300 7.222032
69.305 7.482664
69.310 7.574169
69.315 7.481241
69.320 7.26619
69.325 7.157088
69.330 7.125126
69.335 6.691126
69.340 6.603498
69.345 6.276924
69.350 6.120286
69.355 6.019256
69.360 5.561276
69.365 5.249688
69.370 5.247514
69.375 5.309064
69.380 5.232407
69.385 5.144567
69.390 5.256856
69.395 5.416192
69.400 5.616731
69.405 5.527963
69.410 5.314138
69.415 5.192124
69.420 5.155764
69.425 5.226074
69.430 5.11307
69.435 4.946075
69.440 5.097208
69.445 5.206976
69.450 5.395749
69.455 5.430165
69.460 5.549494
69.465 5.838545
69.470 6.000171
69.475 5.937078
69.480 5.926844
69.485 6.021708
69.490 6.150595
69.495 5.854018
69.500 5.762686
69.505 5.803227
69.510 5.983118
69.515 5.813307
69.520 5.630205
69.525 5.51252
69.530 5.568036
69.535 5.6147
69.540 5.549426
69.545 5.350566
69.550 5.261122
69.555 5.247577
69.560 5.564611
69.565 5.290715
69.570 5.026913
69.575 4.981084
69.580 5.180462
69.585 5.235967
69.590 5.343718
69.595 5.132843
69.600 5.495185
69.605 5.796394
69.610 5.997589
69.615 6.16808
69.620 6.924745
69.625 6.93646
69.630 7.01782
69.635 6.968276
69.640 6.753999
69.645 6.66845
69.650 6.460493
69.655 5.852032
69.660 5.836833
69.665 5.951722
69.670 6.171213
69.675 6.174258
69.680 6.226868
69.685 6.320692
69.690 6.40927
69.695 6.338464
69.700 6.053567
69.705 5.739071
69.710 5.586368
69.715 5.194955
69.720 5.08287
69.725 5.138002
69.730 5.118412
69.735 4.922851
69.740 5.240884
69.745 5.501995
69.750 5.582398
69.755 5.45704
69.760 5.138009
69.765 5.394022
69.770 5.542592
69.775 5.435805
69.780 5.308923
69.785 5.841239
69.790 5.753861
69.795 5.661252
69.800 5.467384
69.805 5.467324
69.810 5.397262
69.815 4.937106
69.820 4.457574
69.825 4.6311
69.830 4.960004
69.835 4.857967
69.840 4.941658
69.845 4.944823
69.850 5.225085
69.855 5.44651
69.860 5.335749
69.865 5.084835
69.870 5.040738
69.875 4.861075
69.880 4.869908
69.885 4.768843
69.890 4.519257
69.895 5.039115
69.900 5.402045
69.905 5.817869
69.910 6.090894
69.915 6.141926
69.920 6.315192
69.925 6.525623
69.930 6.446488
69.935 6.451643
69.940 6.544993
69.945 6.65632
69.950 6.768762
69.955 6.848627
69.960 6.530736
69.965 6.10096
69.970 6.015515
69.975 5.610412
69.980 5.210076
69.985 5.130342
69.990 5.280836
69.995 5.385807
70.000 5.376381
70.005 5.168248
70.010 5.367179
70.015 5.641536
70.020 5.764267
70.025 5.652077
70.030 6.023131
70.035 6.561591
70.040 6.871567
70.045 6.870542
70.050 7.097225
70.055 6.941517
70.060 6.698475
70.065 6.568719
70.070 6.096498
70.075 5.846159
70.080 5.736145
70.085 5.474365
70.090 5.312774
70.095 5.403158
70.100 5.304446
70.105 5.24348
70.110 4.878727
70.115 4.76556
70.120 4.744885
70.125 4.974524
70.130 4.992059
70.135 4.772436
70.140 4.843682
70.145 5.054188
70.150 5.301039
70.155 5.534368
70.160 5.412292
70.165 5.510634
70.170 5.729374
70.175 5.795328
70.180 5.638986
70.185 5.651115
70.190 5.499249
70.195 5.770967
70.200 5.952977
70.205 6.062544
70.210 5.950388
70.215 6.246943
70.220 6.274642
70.225 6.150542
70.230 6.000607
70.235 5.751324
70.240 5.345413
70.245 5.214498
70.250 5.022915
70.255 5.22615
70.260 5.181931
70.265 5.211349
70.270 5.232359
70.275 5.433289
70.280 5.809727
70.285 5.408064
70.290 5.33004
70.295 5.683748
70.300 5.520518
70.305 5.469428
70.310 5.441964
70.315 5.516915
70.320 5.795959
70.325 5.887982
70.330 6.072834
70.335 6.14351
70.340 6.190709
70.345 6.036588
70.350 5.629433
70.355 5.031974
70.360 4.474889
70.365 3.834049
70.370 3.514109
70.375 3.533398
70.380 3.830378
70.385 3.905023
70.390 4.25639
70.395 4.580279
70.400 4.711907
70.405 5.02886
70.410 5.071122
70.415 5.022962
70.420 5.315862
70.425 5.164505
70.430 5.244825
70.435 5.582914
70.440 5.68036
70.445 5.663961
70.450 5.50702
70.455 5.38625
70.460 5.336372
70.465 5.367535
70.470 5.247002
70.475 5.363611
70.480 5.490481
70.485 5.580883
70.490 5.643432
70.495 5.810386
70.500 5.668792
70.505 5.278363
70.510 5.341568
70.515 5.447809
70.520 5.687068
70.525 5.810981
70.530 5.860433
70.535 5.744097
70.540 6.094339
70.545 6.217425
70.550 6.104154
70.555 6.019682
70.560 5.783138
70.565 5.715628
70.570 5.745505
70.575 5.455129
70.580 5.12471
70.585 5.161114
70.590 5.07208
70.595 4.974283
70.600 5.068421
70.605 4.902121
70.610 4.94637
70.615 4.756656
70.620 4.44952
70.625 4.783994
70.630 4.687733
70.635 4.718231
70.640 5.050356
70.645 5.036084
70.650 5.010443
70.655 5.253848
70.660 5.164857
70.665 5.432518
70.670 5.094963
70.675 5.036671
70.680 5.215252
70.685 5.196326
70.690 4.792261
70.695 4.456461
70.700 4.63447
70.705 4.699166
70.710 4.790754
70.715 4.919992
70.720 4.834832
70.725 4.814329
70.730 4.713748
70.735 4.598215
70.740 4.526387
70.745 4.233935
70.750 4.137708
70.755 4.552481
70.760 4.629471
70.765 4.737414
70.770 4.839262
70.775 5.109515
70.780 5.438294
70.785 5.293631
70.790 5.283557
70.795 5.620118
70.800 5.792381
70.805 5.815848
70.810 5.648406
70.815 5.787383
70.820 5.844901
70.825 5.775041
70.830 5.811044
70.835 5.731678
70.840 5.852646
70.845 5.67539
70.850 5.342337
70.855 5.296295
70.860 5.507369
70.865 5.213806
70.870 5.282996
70.875 5.268182
70.880 5.254004
70.885 5.245057
70.890 5.139132
70.895 4.805559
70.900 5.185541
70.905 5.339957
70.910 5.543182
70.915 5.508899
70.920 5.728719
70.925 5.759795
70.930 5.996375
70.935 5.846547
70.940 5.693673
70.945 5.86797
70.950 6.143914
70.955 6.450652
70.960 6.781387
70.965 6.701923
70.970 6.478598
70.975 6.221806
70.980 5.74842
70.985 5.648639
70.990 5.416368
70.995 5.245732
71.000 4.98455
71.005 4.981848
71.010 5.339169
71.015 5.565855
71.020 5.425077
71.025 5.483742
71.030 5.601547
71.035 5.829481
71.040 5.62161
71.045 5.222058
71.050 5.164828
71.055 4.668896
71.060 4.375124
71.065 3.964993
71.070 3.863291
71.075 3.882823
71.080 4.008991
71.085 4.077074
71.090 4.564914
71.095 4.997804
71.100 5.444412
71.105 5.510997
71.110 5.662046
71.115 5.669198
71.120 5.612559
71.125 5.424912
71.130 5.374193
71.135 5.054169
71.140 5.037413
71.145 5.481656
71.150 5.497308
71.155 5.569317
71.160 5.732393
71.165 5.750593
71.170 5.682926
71.175 5.340933
71.180 5.047976
71.185 5.030746
71.190 5.119356
71.195 4.796504
71.200 4.678042
71.205 5.159529
71.210 5.656317
71.215 5.486697
71.220 5.629446
71.225 5.682014
71.230 5.54776
71.235 5.595423
71.240 5.366043
71.245 5.042383
71.250 4.962585
71.255 4.719773
71.260 4.723763
71.265 4.959839
71.270 4.898096
71.275 4.79582
71.280 4.817492
71.285 5.050581
71.290 5.143713
71.295 5.186867
71.300 5.26306
71.305 5.378789
71.310 5.559054
71.315 5.470884
71.320 5.295898
71.325 5.375968
71.330 5.429631
71.335 5.429553
71.340 5.481802
71.345 5.496612
71.350 5.71384
71.355 5.796638
71.360 5.358675
71.365 5.685576
71.370 5.812057
71.375 5.866356
71.380 5.593606
71.385 5.523863
71.390 5.464787
71.395 5.625714
71.400 5.206803
71.405 4.794051
71.410 4.899364
71.415 4.712393
71.420 4.520903
71.425 4.567694
71.430 4.411167
71.435 4.283379
71.440 4.428043
71.445 4.249905
71.450 4.791018
71.455 5.105559
71.460 5.156061
71.465 5.225962
71.470 5.306521
71.475 5.223608
71.480 5.445974
71.485 5.313808
71.490 4.866688
71.495 4.832664
71.500 4.900496
71.505 5.042033
71.510 5.027871
71.515 4.782478
71.520 4.900791
71.525 5.299834
71.530 5.369968
71.535 5.484396
71.540 5.505562
71.545 5.468352
71.550 5.618164
71.555 5.562606
71.560 5.375572
71.565 5.413303
71.570 5.124823
71.575 4.89057
71.580 4.715153
71.585 4.686457
71.590 4.715927
71.595 4.742944
71.600 4.839929
71.605 5.122642
71.610 5.378825
71.615 5.528949
71.620 5.077463
71.625 4.899052
71.630 5.057171
71.635 5.197901
71.640 5.269069
71.645 5.04556
71.650 5.129107
71.655 5.666714
71.660 5.763758
71.665 5.395848
71.670 4.945755
71.675 4.819271
71.680 4.992758
71.685 4.941393
71.690 4.512458
71.695 4.611128
71.700 4.931632
71.705 4.990965
71.710 5.096064
71.715 5.082227
71.720 5.045555
71.725 5.072779
71.730 5.013948
71.735 4.85055
71.740 4.695288
71.745 4.634271
71.750 4.570834
71.755 5.055727
71.760 5.444791
71.765 5.690738
71.770 5.961863
71.775 6.186757
71.780 5.991455
71.785 5.801902
71.790 5.386995
71.795 5.046556
71.800 4.560962
71.805 4.108025
71.810 4.359658
71.815 4.616582
71.820 4.851113
71.825 4.794394
71.830 4.808553
71.835 4.913689
71.840 4.888001
71.845 4.437772
71.850 4.26638
71.855 4.128862
71.860 4.227062
71.865 4.514303
71.870 4.588898
71.875 4.766911
71.880 4.770731
71.885 4.831604
71.890 4.942023
71.895 4.86363
71.900 4.861283
71.905 4.923104
71.910 4.939736
71.915 4.836648
71.920 4.633795
71.925 4.376926
71.930 4.25537
71.935 3.888781
71.940 3.837706
71.945 3.894952
71.950 4.102664
71.955 4.296455
71.960 4.478772
71.965 4.639377
71.970 4.858397
71.975 4.710632
71.980 4.677723
71.985 4.982161
71.990 5.278237
71.995 5.266672
72.000 4.993361
72.005 4.74467
72.010 5.092569
72.015 5.07936
72.020 4.783672
72.025 4.496418
72.030 4.558472
72.035 4.983405
72.040 5.084123
72.045 4.961144
72.050 5.141391
72.055 5.329842
72.060 5.595686
72.065 5.369365
72.070 5.179653
72.075 5.282054
72.080 5.198679
72.085 5.059919
72.090 4.965595
72.095 4.789919
72.100 4.783218
72.105 4.866715
72.110 4.736416
72.115 4.693394
72.120 5.047479
72.125 5.188788
72.130 5.417638
72.135 5.32551
72.140 5.356873
72.145 5.819566
72.150 5.823236
72.155 5.146792
72.160 4.965703
72.165 5.065424
72.170 5.219364
72.175 5.199911
72.180 4.802971
72.185 4.884461
72.190 5.06692
72.195 5.13611
72.200 5.204046
72.205 5.160159
72.210 5.32803
72.215 5.642623
72.220 5.783841
72.225 5.649015
72.230 5.40293
72.235 5.215173
72.240 5.104107
72.245 4.767041
72.250 4.477802
72.255 4.306947
72.260 4.642663
72.265 4.847822
72.270 5.070369
72.275 5.274074
72.280 5.217537
72.285 5.411558
72.290 5.487853
72.295 5.347821
72.300 5.26749
72.305 5.125967
72.310 5.34321
72.315 5.559205
72.320 5.713757
72.325 5.66362
72.330 5.522327
72.335 5.551117
72.340 5.222852
72.345 4.78389
72.350 4.49672
72.355 4.12891
72.360 4.194001
72.365 4.45664
72.370 4.651858
72.375 5.040987
72.380 5.471394
72.385 5.614536
72.390 5.689696
72.395 5.657455
72.400 5.362176
72.405 5.247445
72.410 5.039447
72.415 4.682314
72.420 4.963029
72.425 5.588102
72.430 5.770205
72.435 5.94934
72.440 6.150606
72.445 6.514894
72.450 6.702072
72.455 6.289226
72.460 5.774758
72.465 5.710524
72.470 6.138586
72.475 5.975104
72.480 6.003167
72.485 6.082285
72.490 6.040916
72.495 6.035099
72.500 6.029425
72.505 5.48977
72.510 5.136847
72.515 4.977876
72.520 4.951193
72.525 4.940444
72.530 5.198246
72.535 5.00543
72.540 5.246833
72.545 5.494296
72.550 5.317631
72.555 5.378916
72.560 5.236397
72.565 5.089857
72.570 4.941795
72.575 4.484897
72.580 4.207298
72.585 3.982662
72.590 3.776881
72.595 3.725597
72.600 3.620224
72.605 3.782133
72.610 4.106808
72.615 4.165659
72.620 4.356673
72.625 4.601902
72.630 4.756902
72.635 4.954078
72.640 5.222043
72.645 5.376948
72.650 5.376068
72.655 5.220976
72.660 5.087095
72.665 5.316855
72.670 5.281995
72.675 4.976093
72.680 4.703578
72.685 5.16065
72.690 5.022596
72.695 5.00556
72.700 4.936562
72.705 5.171101
72.710 5.417019
72.715 5.537466
72.720 5.624398
72.725 5.822948
72.730 5.457885
72.735 5.015617
72.740 4.832806
72.745 4.658525
72.750 4.616919
72.755 4.34723
72.760 4.381351
72.765 4.664709
72.770 4.818103
72.775 4.9482
72.780 5.365211
72.785 5.473362
72.790 5.639041
72.795 5.715979
72.800 5.757093
72.805 5.662305
72.810 5.517263
72.815 5.228208
72.820 5.012116
72.825 4.657641
72.830 4.636954
72.835 4.925809
72.840 5.02982
72.845 4.785173
72.850 5.131573
72.855 5.37535
72.860 5.496967
72.865 5.673747
72.870 5.72751
72.875 5.975532
72.880 5.988614
72.885 5.822489
72.890 5.82963
72.895 5.879355
72.900 5.51842
72.905 5.320642
72.910 5.154674
72.915 5.153937
72.920 5.165946
72.925 4.97912
72.930 5.071902
72.935 4.749233
72.940 4.416973
72.945 4.402914
72.950 4.16898
72.955 4.180402
72.960 4.367715
72.965 4.333864
72.970 4.734571
72.975 4.798607
72.980 4.639729
72.985 4.769643
72.990 4.957093
72.995 4.88789
73.000 4.689283
73.005 4.487629
73.010 4.597386
73.015 4.756655
73.020 4.63711
73.025 4.620469
73.030 4.764467
73.035 4.778236
73.040 4.882689
73.045 4.892671
73.050 4.962804
73.055 5.34369
73.060 5.397156
73.065 5.543524
73.070 5.983999
73.075 6.359342
73.080 6.362075
73.085 6.394535
73.090 6.071585
73.095 6.00485
73.100 6.077417
73.105 5.499617
73.110 5.394676
73.115 5.392491
73.120 5.331232
73.125 5.310581
73.130 4.917618
73.135 4.660497
73.140 4.876685
73.145 4.597329
73.150 4.32132
73.155 4.174001
73.160 4.272729
73.165 4.824519
73.170 4.867077
73.175 4.901971
73.180 5.240123
73.185 5.340567
73.190 5.352929
73.195 5.10029
73.200 5.12485
73.205 5.027917
73.210 4.707893
73.215 4.658021
73.220 4.652254
73.225 4.899118
73.230 4.994025
73.235 4.974373
73.240 5.267123
73.245 5.754555
73.250 6.139424
73.255 6.235471
73.260 6.253709
73.265 5.956774
73.270 6.030528
73.275 5.959032
73.280 5.645879
73.285 5.349182
73.290 5.09616
73.295 4.900307
73.300 5.018466
73.305 4.740783
73.310 4.597319
73.315 4.329436
73.320 4.261941
73.325 4.582501
73.330 4.289518
73.335 4.204056
73.340 4.371037
73.345 4.621337
73.350 4.761158
73.355 4.856504
73.360 4.806643
73.365 5.160482
73.370 5.256711
73.375 5.41101
73.380 5.286739
73.385 5.287455
73.390 5.177371
73.395 5.276605
73.400 5.611541
73.405 5.320234
73.410 4.968388
73.415 5.106086
73.420 5.090762
73.425 5.300425
73.430 4.893814
73.435 4.623168
73.440 4.514563
73.445 4.258079
73.450 4.075435
73.455 4.185612
73.460 4.167649
73.465 4.687317
73.470 5.239466
73.475 5.839009
73.480 6.028206
73.485 6.096761
73.490 5.99128
73.495 5.794357
73.500 5.159523
73.505 4.513121
73.510 3.94396
73.515 4.22086
73.520 4.349811
73.525 4.185869
73.530 4.469967
73.535 4.710051
73.540 5.164109
73.545 5.464597
73.550 5.418682
73.555 5.665553
73.560 5.486307
73.565 5.326481
73.570 5.150014
73.575 5.190155
73.580 5.045562
73.585 4.747629
73.590 4.800282
73.595 4.812195
73.600 4.716885
73.605 4.748583
73.610 4.719231
73.615 4.74023
73.620 4.611459
73.625 4.332333
73.630 4.549817
73.635 4.586576
73.640 4.357793
73.645 4.06162
73.650 4.009468
73.655 4.123654
73.660 4.119668
73.665 3.969978
73.670 4.251227
73.675 4.547842
73.680 4.624997
73.685 4.526884
73.690 4.616614
73.695 4.613638
73.700 4.49609
73.705 4.407981
73.710 4.328574
73.715 4.534109
73.720 4.496043
73.725 4.344216
73.730 4.780445
73.735 4.926934
73.740 4.787963
73.745 4.729919
73.750 4.752528
73.755 4.980452
73.760 4.990657
73.765 4.674446
73.770 4.774401
73.775 4.871707
73.780 4.694796
73.785 4.561665
73.790 4.429283
73.795 4.464672
73.800 4.874235
73.805 4.896646
73.810 5.099504
73.815 5.44186
73.820 5.374688
73.825 5.349029
73.830 5.415094
73.835 5.235255
73.840 5.251822
73.845 5.228186
73.850 5.050553
73.855 5.345336
73.860 5.168741
73.865 5.323769
73.870 5.178157
73.875 4.911746
73.880 4.879169
73.885 5.123657
73.890 5.334337
73.895 5.363168
73.900 5.072029
73.905 5.181437
73.910 5.575565
73.915 5.880401
73.920 5.525006
73.925 5.165049
73.930 5.081563
73.935 5.452805
73.940 5.58123
73.945 5.347187
73.950 5.396739
73.955 5.817453
73.960 5.867239
73.965 5.805779
73.970 5.535671
73.975 5.399359
73.980 5.371795
73.985 4.815047
73.990 4.734093
73.995 4.738194
74.000 4.812023
74.005 4.772509
74.010 4.75508
74.015 4.656442
74.020 5.015538
74.025 5.08373
74.030 5.315223
74.035 5.447902
74.040 5.567298
74.045 5.656164
74.050 5.877653
74.055 5.750012
74.060 5.845058
74.065 5.534402
74.070 5.365259
74.075 5.488571
74.080 5.437373
74.085 4.975417
74.090 4.77479
74.095 4.68809
74.100 4.812028
74.105 4.452579
74.110 4.139266
74.115 3.976563
74.120 4.037905
74.125 4.110282
74.130 4.150369
74.135 4.080064
74.140 4.171907
74.145 4.138958
74.150 4.316669
74.155 4.764406
74.160 4.574149
74.165 4.509221
74.170 4.844254
74.175 4.604156
74.180 4.520719
74.185 4.272584
74.190 4.05781
74.195 4.228921
74.200 4.059456
74.205 4.199986
74.210 4.349264
74.215 4.354053
74.220 4.605854
74.225 4.743243
74.230 4.892645
74.235 4.95032
74.240 4.81901
74.245 5.04933
74.250 4.92722
74.255 4.847053
74.260 4.80699
74.265 4.477541
74.270 4.493242
74.275 4.446775
74.280 4.50762
74.285 4.569427
74.290 4.609003
74.295 4.480659
74.300 4.548748
74.305 4.466439
74.310 4.550647
74.315 4.662707
74.320 4.710587
74.325 4.916911
74.330 5.200002
74.335 5.633408
74.340 5.815001
74.345 6.004265
74.350 5.892424
74.355 5.454726
74.360 4.922543
74.365 4.773086
74.370 4.51412
74.375 4.27322
74.380 4.110017
74.385 4.304018
74.390 4.757696
74.395 4.919606
74.400 4.741691
74.405 4.608384
74.410 4.779657
74.415 4.905416
74.420 5.038542
74.425 4.959037
74.430 4.771741
74.435 4.816525
74.440 5.043621
74.445 4.868244
74.450 4.669822
74.455 4.585998
74.460 4.567713
74.465 4.65816
74.470 4.691195
74.475 4.690283
74.480 5.00299
74.485 5.14385
74.490 5.166149
74.495 5.334373
74.500 5.330554
74.505 5.386936
74.510 5.088204
74.515 4.829854
74.520 5.072406
74.525 5.017514
74.530 4.822181
74.535 4.754613
74.540 4.671963
74.545 4.604061
74.550 4.297177
74.555 3.948829
74.560 4.099219
74.565 4.392659
74.570 4.404134
74.575 4.441797
74.580 4.672927
74.585 5.216047
74.590 5.435765
74.595 5.690821
74.600 5.796247
74.605 5.908051
74.610 6.117194
74.615 6.097614
74.620 5.89691
74.625 5.411136
74.630 5.311193
74.635 5.028334
74.640 5.239594
74.645 4.957394
74.650 4.924664
74.655 4.989758
74.660 5.323453
74.665 5.584115
74.670 5.883671
74.675 5.776956
74.680 5.534721
74.685 5.350111
74.690 5.113053
74.695 5.077301
74.700 4.830714
74.705 4.257647
74.710 4.245778
74.715 4.326873
74.720 4.376236
74.725 4.616585
74.730 4.136384
74.735 4.277801
74.740 4.669408
74.745 4.690354
74.750 4.658216
74.755 4.445686
74.760 4.231759
74.765 4.37969
74.770 4.134904
74.775 4.116518
74.780 4.45634
74.785 4.779391
74.790 5.186702
74.795 5.2774
74.800 5.016923
74.805 5.167535
74.810 5.289419
74.815 5.280112
74.820 4.871743
74.825 4.607995
74.830 4.753142
74.835 4.716833
74.840 4.670854
74.845 4.616692
74.850 4.673493
74.855 5.083936
74.860 5.184846
74.865 5.560294
74.870 5.604807
74.875 5.41049
74.880 5.126071
74.885 5.01928
74.890 5.015187
74.895 4.553796
74.900 4.366498
74.905 4.234817
74.910 4.161755
74.915 3.939054
74.920 3.777191
74.925 3.853312
74.930 4.052238
74.935 3.958323
74.940 4.159611
74.945 4.335202
74.950 4.434045
74.955 4.454745
74.960 4.398656
74.965 4.43349
74.970 4.658811
74.975 4.55683
74.980 4.677361
74.985 4.830082
74.990 4.782288
74.995 4.700655
75.000 4.425748
