!@!!GADDS PLOTSO FILE: Chi integration type
!@!!Title/SampleName: map-0
!@!!Comment: ?
!@!!User: Bruker Instrument Administrator
!@!!Site: University of Illinois Chicago
!@!!Frame: map-0_01_000.gfrm
!@!!Wavelengths    1.54184   1.54056   1.54439
!@!!Frame angles: 2Theta: 65.000 Omega: 50.000 Phi: 0.000 Chi: 90.000
!@!!Integration range: 2Theta: 55.000 to 75.000  Gamma: -105.000 to -75.000
!@!!Integration method: bin normalized
!@!N
!@!SS
!@!M
!@!L 0.0 0.0 0.0 0.0
!@!XDegrees
!@!YCounts
55.000 4.842907
55.005 4.952774
55.010 5.277204
55.015 5.222615
55.020 5.08164
55.025 4.953308
55.030 4.690348
55.035 4.350757
55.040 4.253115
55.045 4.051822
55.050 4.136257
55.055 4.113364
55.060 3.876983
55.065 4.190688
55.070 4.319148
55.075 4.437946
55.080 4.723209
55.085 4.770758
55.090 4.823706
55.095 4.56708
55.100 4.353731
55.105 4.314941
55.110 4.128087
55.115 4.198288
55.120 4.386837
55.125 4.516462
55.130 4.733675
55.135 4.729953
55.140 4.568984
55.145 4.542172
55.150 4.082212
55.155 3.946422
55.160 4.091311
55.165 3.862735
55.170 3.987749
55.175 3.839803
55.180 4.049634
55.185 4.377846
55.190 4.501538
55.195 4.571465
55.200 4.75835
55.205 4.73502
55.210 4.789992
55.215 4.541953
55.220 4.530843
55.225 4.396068
55.230 4.574481
55.235 4.664223
55.240 4.796011
55.245 4.754919
55.250 4.721928
55.255 4.910861
55.260 4.582476
55.265 4.323303
55.270 4.256182
55.275 4.223887
55.280 4.243001
55.285 4.066288
55.290 4.24847
55.295 4.787466
55.300 4.814126
55.305 4.709726
55.310 4.66591
55.315 5.048513
55.320 5.317917
55.325 5.17954
55.330 4.954553
55.335 5.359616
55.340 5.853012
55.345 5.837001
55.350 5.425766
55.355 4.88832
55.360 4.83996
55.365 4.961082
55.370 4.200602
55.375 3.826515
55.380 3.605089
55.385 3.618899
55.390 4.029179
55.395 3.767522
55.400 3.628201
55.405 3.745913
55.410 3.678018
55.415 4.046844
55.420 4.231462
55.425 4.393842
55.430 4.581902
55.435 4.85393
55.440 5.19551
55.445 5.166092
55.450 5.312286
55.455 5.238821
55.460 4.916691
55.465 4.64346
55.470 4.553728
55.475 4.479556
55.480 4.573991
55.485 4.349236
55.490 4.036274
55.495 4.405147
55.500 4.280407
55.505 4.1556
55.510 4.139254
55.515 3.921
55.520 3.926652
55.525 4.135739
55.530 3.98157
55.535 4.494416
55.540 4.829487
55.545 5.0916
55.550 5.409758
55.555 5.356486
55.560 5.236554
55.565 5.148837
55.570 4.744831
55.575 4.607242
55.580 4.344794
55.585 4.270385
55.590 4.051144
55.595 4.54993
55.600 4.751863
55.605 4.824974
55.610 4.749448
55.615 4.829556
55.620 4.909958
55.625 5.250535
55.630 5.138684
55.635 5.366444
55.640 5.595948
55.645 5.498953
55.650 5.412579
55.655 5.272894
55.660 4.774756
55.665 4.607943
55.670 4.415167
55.675 4.512904
55.680 4.571838
55.685 4.469037
55.690 4.98336
55.695 5.305447
55.700 4.931121
55.705 4.589506
55.710 4.42117
55.715 4.546922
55.720 4.54574
55.725 4.450779
55.730 4.412827
55.735 4.529095
55.740 4.845276
55.745 4.908598
55.750 5.138079
55.755 5.18687
55.760 5.070752
55.765 5.059269
55.770 4.843758
55.775 4.551133
55.780 4.190947
55.785 3.814629
55.790 3.986026
55.795 3.537657
55.800 3.737552
55.805 4.206523
55.810 4.194442
55.815 4.295391
55.820 4.418839
55.825 4.535492
55.830 4.546484
55.835 4.44407
55.840 4.394504
55.845 4.586798
55.850 4.56905
55.855 4.231376
55.860 4.093378
55.865 4.240523
55.870 4.152201
55.875 4.077321
55.880 4.035615
55.885 4.402311
55.890 4.73121
55.895 4.564239
55.900 4.842364
55.905 4.842876
55.910 4.993829
55.915 5.323315
55.920 5.075792
55.925 5.113946
55.930 5.218222
55.935 5.05268
55.940 5.085446
55.945 4.842075
55.950 4.372948
55.955 4.171488
55.960 4.29286
55.965 4.367955
55.970 4.346296
55.975 4.347912
55.980 4.411334
55.985 4.65263
55.990 4.732852
55.995 4.405578
56.000 4.459648
56.005 4.395534
56.010 4.205433
56.015 4.199594
56.020 4.270439
56.025 4.621876
56.030 4.623663
56.035 4.639772
56.040 4.688406
56.045 4.703804
56.050 4.620563
56.055 4.298656
56.060 3.887993
56.065 3.712481
56.070 3.450266
56.075 3.32364
56.080 3.312898
56.085 3.194103
56.090 3.514684
56.095 3.83309
56.100 4.16838
56.105 4.25625
56.110 4.299659
56.115 4.500034
56.120 4.791936
56.125 4.555166
56.130 4.549342
56.135 4.787699
56.140 4.970834
56.145 5.267478
56.150 5.474264
56.155 5.470377
56.160 5.649349
56.165 5.362681
56.170 5.248265
56.175 5.028903
56.180 4.760615
56.185 4.566023
56.190 4.536191
56.195 4.163753
56.200 3.939814
56.205 3.795622
56.210 3.859092
56.215 3.744549
56.220 3.541172
56.225 3.550183
56.230 3.952223
56.235 4.573778
56.240 4.626144
56.245 4.747632
56.250 4.962067
56.255 4.948031
56.260 4.925504
56.265 5.021997
56.270 4.86748
56.275 5.122078
56.280 5.253399
56.285 5.120375
56.290 5.420971
56.295 5.631726
56.300 5.607832
56.305 5.710031
56.310 5.314519
56.315 5.4909
56.320 5.529338
56.325 5.52986
56.330 5.207376
56.335 4.573541
56.340 4.402134
56.345 4.583042
56.350 4.415882
56.355 4.52523
56.360 4.616893
56.365 4.960563
56.370 5.056012
56.375 4.840076
56.380 4.655443
56.385 4.315324
56.390 4.13172
56.395 3.955579
56.400 4.027052
56.405 4.504637
56.410 4.880753
56.415 5.064756
56.420 5.23742
56.425 5.384878
56.430 5.498151
56.435 5.424869
56.440 5.329994
56.445 5.285916
56.450 5.02126
56.455 5.077701
56.460 4.875766
56.465 4.826916
56.470 4.580618
56.475 4.317651
56.480 4.362196
56.485 4.575727
56.490 4.497588
56.495 4.286751
56.500 3.953083
56.505 4.044655
56.510 4.243199
56.515 4.188523
56.520 4.114002
56.525 4.235098
56.530 4.567903
56.535 4.674818
56.540 4.692412
56.545 4.483658
56.550 4.17653
56.555 4.090324
56.560 4.029808
56.565 4.125816
56.570 4.132092
56.575 4.196629
56.580 4.321795
56.585 4.642062
56.590 4.994078
56.595 4.997775
56.600 4.877943
56.605 4.853078
56.610 4.635206
56.615 4.736263
56.620 4.688782
56.625 4.282866
56.630 4.40097
56.635 4.366178
56.640 4.386048
56.645 4.179646
56.650 4.15143
56.655 4.558756
56.660 4.749699
56.665 4.644533
56.670 4.604723
56.675 4.837349
56.680 4.837617
56.685 4.587403
56.690 4.304304
56.695 4.334675
56.700 4.657547
56.705 4.792611
56.710 4.892386
56.715 5.044565
56.720 5.110314
56.725 5.089768
56.730 4.750346
56.735 4.396629
56.740 4.278753
56.745 4.130645
56.750 3.941703
56.755 3.447876
56.760 3.795431
56.765 3.870015
56.770 3.866617
56.775 3.96601
56.780 3.958194
56.785 4.26315
56.790 4.808244
56.795 4.660265
56.800 4.773924
56.805 4.739622
56.810 4.951123
56.815 5.043363
56.820 4.892417
56.825 4.54408
56.830 4.361639
56.835 4.394562
56.840 4.54926
56.845 4.348466
56.850 4.750959
56.855 4.753371
56.860 4.635025
56.865 4.918305
56.870 4.942547
56.875 5.139164
56.880 5.112086
56.885 4.85977
56.890 4.882777
56.895 5.005234
56.900 5.103304
56.905 4.928585
56.910 4.900751
56.915 5.308281
56.920 5.279709
56.925 5.299973
56.930 5.48974
56.935 5.48682
56.940 5.420816
56.945 5.4159
56.950 5.598978
56.955 5.802247
56.960 5.828585
56.965 5.63122
56.970 5.716343
56.975 5.895994
56.980 5.571711
56.985 5.084182
56.990 4.706358
56.995 4.457675
57.000 4.288385
57.005 4.09865
57.010 4.072285
57.015 4.190483
57.020 4.275976
57.025 4.575826
57.030 4.638536
57.035 4.937891
57.040 4.985326
57.045 5.060952
57.050 4.928777
57.055 4.860166
57.060 5.109867
57.065 5.258592
57.070 5.004338
57.075 5.101964
57.080 5.058229
57.085 5.046965
57.090 5.073252
57.095 4.783368
57.100 4.845531
57.105 4.672289
57.110 4.563621
57.115 4.931286
57.120 4.998394
57.125 5.218944
57.130 5.572298
57.135 5.379254
57.140 5.509007
57.145 5.372715
57.150 5.281171
57.155 5.302075
57.160 5.225951
57.165 4.757104
57.170 4.790032
57.175 4.651156
57.180 4.658081
57.185 4.59973
57.190 4.517514
57.195 4.594564
57.200 5.055166
57.205 5.132333
57.210 5.13936
57.215 5.045295
57.220 5.250318
57.225 5.640291
57.230 5.71158
57.235 5.573578
57.240 5.813486
57.245 5.791145
57.250 5.818021
57.255 5.367981
57.260 4.840556
57.265 4.563544
57.270 4.435962
57.275 4.291511
57.280 4.463155
57.285 4.554177
57.290 4.849118
57.295 4.896383
57.300 4.679716
57.305 4.818422
57.310 4.753638
57.315 4.744405
57.320 4.276934
57.325 4.121405
57.330 4.354257
57.335 4.499332
57.340 4.2695
57.345 4.141501
57.350 4.382178
57.355 4.752834
57.360 4.652987
57.365 4.758268
57.370 4.898822
57.375 5.066794
57.380 5.118171
57.385 4.742106
57.390 4.894413
57.395 5.347127
57.400 5.330489
57.405 5.31326
57.410 5.579026
57.415 5.912415
57.420 5.992024
57.425 5.447312
57.430 5.156111
57.435 4.940491
57.440 4.591321
57.445 4.456135
57.450 4.133017
57.455 4.284058
57.460 4.677214
57.465 4.798818
57.470 5.038128
57.475 4.90937
57.480 5.018903
57.485 5.005818
57.490 4.977084
57.495 4.852299
57.500 4.944616
57.505 4.901625
57.510 5.24952
57.515 5.04961
57.520 5.443595
57.525 5.321903
57.530 5.164065
57.535 5.287407
57.540 5.325291
57.545 4.964145
57.550 4.696925
57.555 4.539726
57.560 4.701879
57.565 4.429265
57.570 4.124257
57.575 4.177648
57.580 4.430765
57.585 4.916396
57.590 4.988701
57.595 5.171639
57.600 5.330625
57.605 5.132787
57.610 4.804173
57.615 4.616232
57.620 4.626694
57.625 4.3764
57.630 4.163429
57.635 4.329164
57.640 4.972642
57.645 5.370406
57.650 5.419369
57.655 5.248221
57.660 5.119901
57.665 4.930701
57.670 4.801876
57.675 4.560717
57.680 4.25926
57.685 3.967222
57.690 4.116023
57.695 4.1499
57.700 4.58766
57.705 4.70339
57.710 4.592012
57.715 4.886947
57.720 4.945749
57.725 5.001074
57.730 5.108896
57.735 5.074728
57.740 5.074899
57.745 5.034846
57.750 5.011679
57.755 4.991395
57.760 4.847397
57.765 4.962377
57.770 4.955905
57.775 5.065435
57.780 5.187371
57.785 5.0925
57.790 5.027796
57.795 5.236071
57.800 5.0997
57.805 5.227745
57.810 5.141022
57.815 5.299247
57.820 5.817465
57.825 6.00364
57.830 6.161049
57.835 5.957864
57.840 5.567087
57.845 5.566816
57.850 5.412158
57.855 5.089561
57.860 4.902736
57.865 4.67892
57.870 4.736944
57.875 4.684698
57.880 4.723641
57.885 4.792844
57.890 4.817577
57.895 4.738665
57.900 4.877301
57.905 5.021607
57.910 5.295568
57.915 5.221823
57.920 5.273937
57.925 5.379104
57.930 5.79169
57.935 6.10585
57.940 6.066813
57.945 6.04717
57.950 6.024076
57.955 5.949151
57.960 5.739749
57.965 5.358058
57.970 5.220808
57.975 5.845074
57.980 5.746823
57.985 5.537745
57.990 5.636175
57.995 5.736247
58.000 5.857899
58.005 5.623705
58.010 5.319474
58.015 5.425488
58.020 5.579285
58.025 5.222246
58.030 4.881346
58.035 4.484547
58.040 4.292256
58.045 4.34958
58.050 4.443859
58.055 4.58461
58.060 4.927887
58.065 5.454358
58.070 5.952703
58.075 6.011734
58.080 5.503852
58.085 5.280234
58.090 4.947175
58.095 4.849709
58.100 5.156978
58.105 5.175357
58.110 5.218089
58.115 5.488736
58.120 5.871827
58.125 5.867212
58.130 5.801457
58.135 5.250837
58.140 5.402935
58.145 5.417855
58.150 5.316507
58.155 5.17138
58.160 5.384162
58.165 5.198778
58.170 5.059754
58.175 5.216242
58.180 5.720166
58.185 6.016247
58.190 6.189963
58.195 6.461614
58.200 6.473789
58.205 6.840068
58.210 6.66586
58.215 6.113633
58.220 5.834182
58.225 5.959953
58.230 6.274943
58.235 6.61333
58.240 6.402524
58.245 6.114857
58.250 6.272739
58.255 5.848272
58.260 5.338546
58.265 4.607122
58.270 4.33562
58.275 4.105751
58.280 4.311814
58.285 4.649833
58.290 5.132962
58.295 5.347064
58.300 5.678537
58.305 5.930922
58.310 6.419596
58.315 6.579345
58.320 6.507794
58.325 6.65642
58.330 7.044703
58.335 7.11478
58.340 7.371599
58.345 7.272665
58.350 7.081537
58.355 7.322401
58.360 7.079018
58.365 6.837656
58.370 6.40091
58.375 6.039707
58.380 5.984431
58.385 6.265553
58.390 6.179259
58.395 6.285494
58.400 6.064855
58.405 6.015294
58.410 5.722239
58.415 5.303973
58.420 4.806497
58.425 5.302873
58.430 5.545232
58.435 6.112497
58.440 6.738812
58.445 7.123181
58.450 8.011415
58.455 8.567618
58.460 8.563695
58.465 8.404273
58.470 8.423976
58.475 8.352934
58.480 8.15321
58.485 7.986888
58.490 8.59469
58.495 8.694009
58.500 8.862823
58.505 8.878651
58.510 8.996965
58.515 9.296242
58.520 9.184991
58.525 8.765607
58.530 8.932106
58.535 9.538852
58.540 9.898799
58.545 10.390871
58.550 10.442443
58.555 10.568865
58.560 10.404049
58.565 10.958026
58.570 10.956848
58.575 11.020715
58.580 11.293393
58.585 11.914783
58.590 12.448363
58.595 12.992321
58.600 12.922424
58.605 12.989992
58.610 13.13065
58.615 12.895537
58.620 12.311734
58.625 12.055872
58.630 11.613159
58.635 11.490341
58.640 11.310984
58.645 10.881938
58.650 11.145468
58.655 11.354705
58.660 12.031744
58.665 13.185156
58.670 13.173794
58.675 13.325857
58.680 13.599841
58.685 13.848536
58.690 14.351109
58.695 14.039859
58.700 13.226166
58.705 13.165709
58.710 13.456393
58.715 13.393787
58.720 13.280915
58.725 13.347903
58.730 13.534695
58.735 14.315592
58.740 14.459086
58.745 14.489838
58.750 15.009145
58.755 14.8426
58.760 14.227403
58.765 13.701269
58.770 13.349124
58.775 13.613637
58.780 13.644176
58.785 13.501344
58.790 13.826262
58.795 13.964257
58.800 13.837987
58.805 14.131422
58.810 13.783622
58.815 13.308493
58.820 12.931914
58.825 12.823679
58.830 12.361623
58.835 11.60995
58.840 10.873632
58.845 10.700035
58.850 10.955086
58.855 11.101357
58.860 10.901638
58.865 11.370006
58.870 12.295185
58.875 12.219572
58.880 11.984617
58.885 11.919632
58.890 11.270988
58.895 11.05033
58.900 10.776411
58.905 9.999633
58.910 9.872813
58.915 9.946607
58.920 9.629225
58.925 10.040195
58.930 9.933007
58.935 9.607456
58.940 9.563313
58.945 9.227443
58.950 8.49089
58.955 8.32392
58.960 7.995236
58.965 7.917495
58.970 7.987836
58.975 8.18107
58.980 8.185138
58.985 8.394331
58.990 8.211775
58.995 8.370642
59.000 8.065598
59.005 8.184113
59.010 7.641347
59.015 7.673042
59.020 7.758121
59.025 7.438503
59.030 7.131176
59.035 7.06707
59.040 6.61059
59.045 6.692588
59.050 6.617541
59.055 6.651499
59.060 6.599838
59.065 6.564057
59.070 6.647037
59.075 6.298148
59.080 6.18749
59.085 6.302422
59.090 6.316465
59.095 6.243141
59.100 6.137558
59.105 5.816883
59.110 6.120775
59.115 6.086322
59.120 5.868717
59.125 5.672412
59.130 5.801069
59.135 5.736568
59.140 5.537301
59.145 5.195757
59.150 5.178558
59.155 5.09134
59.160 5.093464
59.165 5.269788
59.170 5.652207
59.175 5.879634
59.180 5.987565
59.185 6.151521
59.190 6.250877
59.195 6.267079
59.200 5.73827
59.205 5.621852
59.210 5.737261
59.215 5.68572
59.220 5.699864
59.225 5.563462
59.230 5.461342
59.235 5.977818
59.240 5.91684
59.245 5.687665
59.250 5.494912
59.255 5.241952
59.260 5.663884
59.265 5.787282
59.270 5.620118
59.275 5.598019
59.280 5.509994
59.285 6.176342
59.290 6.06547
59.295 5.75999
59.300 5.446082
59.305 5.398726
59.310 5.511688
59.315 5.277092
59.320 4.744497
59.325 4.816575
59.330 5.133427
59.335 5.437747
59.340 5.385508
59.345 5.379721
59.350 5.667017
59.355 5.480459
59.360 5.407041
59.365 5.550473
59.370 5.68845
59.375 5.720985
59.380 5.538326
59.385 5.380669
59.390 5.329287
59.395 5.276097
59.400 4.989717
59.405 4.761959
59.410 4.929981
59.415 5.198092
59.420 5.492413
59.425 5.626461
59.430 5.446795
59.435 5.446698
59.440 5.471874
59.445 5.138797
59.450 4.821416
59.455 4.642964
59.460 4.767927
59.465 4.902849
59.470 4.838708
59.475 4.65183
59.480 4.681528
59.485 4.928574
59.490 4.898018
59.495 4.968124
59.500 5.1201
59.505 5.067852
59.510 5.136039
59.515 5.095117
59.520 5.263176
59.525 5.158483
59.530 4.770168
59.535 4.840684
59.540 4.843957
59.545 4.797155
59.550 4.869371
59.555 4.868158
59.560 4.952631
59.565 5.35938
59.570 5.12368
59.575 5.320359
59.580 5.588811
59.585 5.540516
59.590 5.228291
59.595 5.131271
59.600 5.043506
59.605 5.090775
59.610 4.583179
59.615 4.404664
59.620 4.681575
59.625 5.304002
59.630 5.356219
59.635 5.273982
59.640 5.740985
59.645 6.068247
59.650 5.911932
59.655 5.55434
59.660 5.125566
59.665 4.92514
59.670 4.682485
59.675 4.2992
59.680 4.267109
59.685 4.331254
59.690 4.264604
59.695 4.455731
59.700 4.688495
59.705 4.608226
59.710 4.744922
59.715 4.864542
59.720 4.959314
59.725 4.945494
59.730 5.066001
59.735 5.306476
59.740 5.456123
59.745 5.243494
59.750 5.677382
59.755 5.936374
59.760 6.203485
59.765 5.827638
59.770 5.409211
59.775 5.364765
59.780 5.562158
59.785 5.4255
59.790 5.089985
59.795 4.832771
59.800 4.976441
59.805 5.449745
59.810 5.535003
59.815 5.381512
59.820 5.334857
59.825 5.480849
59.830 5.657907
59.835 5.666214
59.840 5.855267
59.845 5.864252
59.850 5.628699
59.855 5.408222
59.860 5.410344
59.865 5.359657
59.870 5.046752
59.875 4.439869
59.880 4.744915
59.885 4.835552
59.890 4.86775
59.895 5.133601
59.900 5.570951
59.905 5.793409
59.910 5.821274
59.915 5.494467
59.920 5.532213
59.925 5.627951
59.930 5.446493
59.935 4.980919
59.940 4.91538
59.945 4.886517
59.950 4.970002
59.955 4.891375
59.960 4.898556
59.965 4.772542
59.970 5.022365
59.975 5.013629
59.980 4.925397
59.985 4.835576
59.990 5.122955
59.995 5.324151
60.000 5.756535
60.005 5.909829
60.010 6.382518
60.015 6.612222
60.020 6.72965
60.025 6.699182
60.030 6.212241
60.035 5.904576
60.040 5.64293
60.045 5.303321
60.050 5.554143
60.055 5.615582
60.060 5.49529
60.065 5.626016
60.070 5.554998
60.075 5.404988
60.080 5.516182
60.085 5.351108
60.090 5.308582
60.095 5.35288
60.100 5.713085
60.105 5.780062
60.110 6.114031
60.115 6.060976
60.120 5.908286
60.125 5.983105
60.130 6.181216
60.135 5.887579
60.140 6.01989
60.145 6.006652
60.150 5.994102
60.155 6.116801
60.160 6.043732
60.165 5.760567
60.170 5.473273
60.175 5.096462
60.180 5.020075
60.185 4.841415
60.190 4.912606
60.195 4.794572
60.200 5.017287
60.205 5.229037
60.210 5.166059
60.215 4.883298
60.220 4.490256
60.225 4.283641
60.230 4.009723
60.235 3.619323
60.240 3.425311
60.245 3.439868
60.250 3.55808
60.255 4.021461
60.260 4.229123
60.265 4.436795
60.270 4.672798
60.275 5.009335
60.280 5.036674
60.285 5.070369
60.290 4.830681
60.295 4.671132
60.300 4.646106
60.305 4.533384
60.310 4.545709
60.315 4.630152
60.320 4.704088
60.325 4.916411
60.330 5.014204
60.335 5.085423
60.340 5.304558
60.345 5.330803
60.350 5.535656
60.355 5.081419
60.360 4.829752
60.365 4.583364
60.370 4.421347
60.375 4.224094
60.380 4.222334
60.385 3.855871
60.390 4.432489
60.395 4.574699
60.400 4.64969
60.405 4.465715
60.410 4.578154
60.415 4.542606
60.420 4.923872
60.425 4.963133
60.430 5.018297
60.435 5.160326
60.440 5.624852
60.445 5.348892
60.450 5.198677
60.455 4.908403
60.460 4.686612
60.465 4.638308
60.470 4.833712
60.475 4.979347
60.480 5.177677
60.485 5.279263
60.490 5.503854
60.495 5.640964
60.500 5.569126
60.505 5.46542
60.510 5.257053
60.515 5.18765
60.520 5.34301
60.525 5.058557
60.530 4.860801
60.535 5.011716
60.540 4.777495
60.545 4.474426
60.550 4.420163
60.555 4.777642
60.560 4.990889
60.565 5.236482
60.570 5.008017
60.575 5.13073
60.580 5.08629
60.585 4.817825
60.590 4.534525
60.595 4.758088
60.600 4.547382
60.605 4.707857
60.610 4.612917
60.615 4.800805
60.620 5.10237
60.625 4.784866
60.630 4.494483
60.635 4.311661
60.640 4.234316
60.645 4.19777
60.650 4.016454
60.655 3.866717
60.660 3.891862
60.665 3.846288
60.670 4.164937
60.675 4.342796
60.680 4.709072
60.685 4.837297
60.690 4.866489
60.695 5.341187
60.700 5.570617
60.705 5.344526
60.710 5.101599
60.715 4.867342
60.720 4.95344
60.725 5.161466
60.730 4.991322
60.735 4.984059
60.740 5.085073
60.745 5.46486
60.750 5.681373
60.755 5.866923
60.760 5.721873
60.765 5.456374
60.770 5.32325
60.775 5.238343
60.780 4.845677
60.785 4.7375
60.790 4.794223
60.795 4.641109
60.800 4.869407
60.805 4.763188
60.810 4.819907
60.815 4.91675
60.820 4.539294
60.825 4.433293
60.830 4.632955
60.835 4.362626
60.840 4.389025
60.845 4.309637
60.850 4.549191
60.855 4.955881
60.860 4.705245
60.865 4.448364
60.870 4.625037
60.875 4.799405
60.880 4.870128
60.885 4.703802
60.890 4.554309
60.895 4.983316
60.900 5.034256
60.905 4.944511
60.910 4.69588
60.915 4.791901
60.920 4.89713
60.925 4.732917
60.930 4.593817
60.935 4.758474
60.940 4.962891
60.945 5.04467
60.950 4.880651
60.955 4.888608
60.960 5.009788
60.965 5.082502
60.970 4.966199
60.975 4.48146
60.980 4.405704
60.985 4.274857
60.990 4.288854
60.995 4.368665
61.000 4.194663
61.005 4.321393
61.010 4.889946
61.015 4.857314
61.020 4.775603
61.025 4.779579
61.030 4.814793
61.035 5.042906
61.040 4.988897
61.045 4.843083
61.050 4.849918
61.055 5.002216
61.060 4.820447
61.065 4.782278
61.070 4.916969
61.075 4.911512
61.080 4.933115
61.085 5.288805
61.090 5.099417
61.095 5.348372
61.100 5.22383
61.105 4.971481
61.110 5.027162
61.115 5.046185
61.120 4.66792
61.125 4.568882
61.130 4.551284
61.135 4.809986
61.140 5.048975
61.145 5.137164
61.150 4.991423
61.155 5.163375
61.160 5.335939
61.165 5.066625
61.170 5.065462
61.175 4.800049
61.180 4.831791
61.185 4.951749
61.190 5.016728
61.195 5.025097
61.200 4.891578
61.205 4.69311
61.210 5.028256
61.215 4.951624
61.220 4.948851
61.225 5.059306
61.230 4.976419
61.235 5.058815
61.240 5.036599
61.245 4.876148
61.250 4.85937
61.255 4.510873
61.260 4.286821
61.265 4.444078
61.270 4.49228
61.275 4.476197
61.280 4.473099
61.285 4.807553
61.290 5.006684
61.295 5.199155
61.300 5.319006
61.305 5.410983
61.310 5.358156
61.315 5.11012
61.320 4.71535
61.325 4.808093
61.330 5.038039
61.335 5.279799
61.340 5.370233
61.345 5.37911
61.350 5.463192
61.355 5.670454
61.360 5.770631
61.365 5.219617
61.370 5.008003
61.375 4.791446
61.380 5.079583
61.385 5.209774
61.390 5.343969
61.395 5.444685
61.400 5.718166
61.405 5.65574
61.410 5.599095
61.415 5.377102
61.420 5.245822
61.425 4.934049
61.430 4.785247
61.435 4.740455
61.440 4.763358
61.445 4.803293
61.450 4.578211
61.455 4.576664
61.460 4.677833
61.465 4.630139
61.470 4.438292
61.475 4.283931
61.480 4.267487
61.485 4.650034
61.490 4.699211
61.495 4.911847
61.500 5.343933
61.505 5.456565
61.510 5.656549
61.515 5.533054
61.520 5.296997
61.525 5.196381
61.530 5.091754
61.535 4.941388
61.540 5.117088
61.545 4.966018
61.550 4.947222
61.555 4.906084
61.560 5.02547
61.565 5.104488
61.570 5.144466
61.575 5.017767
61.580 5.308197
61.585 5.435059
61.590 5.807701
61.595 5.726804
61.600 5.404916
61.605 4.988615
61.610 5.134004
61.615 5.006301
61.620 5.164092
61.625 4.893797
61.630 4.945883
61.635 5.082979
61.640 5.335224
61.645 5.369258
61.650 5.557604
61.655 5.574597
61.660 5.660918
61.665 5.697636
61.670 5.578738
61.675 5.921386
61.680 5.970614
61.685 5.906962
61.690 5.911177
61.695 5.628869
61.700 5.578942
61.705 5.608772
61.710 5.014854
61.715 4.759843
61.720 4.728825
61.725 4.494349
61.730 4.445203
61.735 4.234941
61.740 4.33553
61.745 4.438271
61.750 4.555201
61.755 4.379494
61.760 4.603486
61.765 4.735588
61.770 4.846662
61.775 4.680858
61.780 4.61161
61.785 4.648423
61.790 4.763824
61.795 4.813608
61.800 4.972656
61.805 5.225251
61.810 5.391375
61.815 5.342306
61.820 5.166932
61.825 5.199659
61.830 5.069505
61.835 4.929293
61.840 4.758653
61.845 4.757322
61.850 4.659995
61.855 4.604942
61.860 4.530493
61.865 4.891476
61.870 5.138597
61.875 5.198344
61.880 5.223825
61.885 5.576825
61.890 5.860093
61.895 6.126194
61.900 5.972641
61.905 5.678091
61.910 5.390226
61.915 5.319006
61.920 5.028866
61.925 4.723868
61.930 4.396276
61.935 4.311061
61.940 4.57631
61.945 4.906894
61.950 5.290482
61.955 5.693032
61.960 5.940902
61.965 5.937514
61.970 5.731954
61.975 5.571519
61.980 5.461247
61.985 5.08255
61.990 4.875669
61.995 4.959026
62.000 5.129737
62.005 5.463827
62.010 5.802083
62.015 6.165942
62.020 6.270213
62.025 6.411931
62.030 6.186174
62.035 5.800988
62.040 5.558536
62.045 5.296448
62.050 5.054517
62.055 4.881489
62.060 4.802454
62.065 4.979121
62.070 5.2933
62.075 5.373548
62.080 5.159832
62.085 5.695161
62.090 6.051749
62.095 5.913412
62.100 5.889585
62.105 5.67149
62.110 5.629169
62.115 5.710338
62.120 5.015208
62.125 4.782858
62.130 4.869056
62.135 4.807981
62.140 4.843037
62.145 5.077603
62.150 4.901803
62.155 4.934729
62.160 4.926607
62.165 4.888764
62.170 5.024243
62.175 5.294846
62.180 5.643778
62.185 5.988437
62.190 6.204662
62.195 6.283198
62.200 6.303313
62.205 6.283371
62.210 6.118644
62.215 5.741238
62.220 5.732109
62.225 5.649947
62.230 5.370035
62.235 5.290759
62.240 5.152168
62.245 5.039866
62.250 4.82984
62.255 4.950737
62.260 4.949962
62.265 5.212348
62.270 5.436839
62.275 5.570485
62.280 5.751565
62.285 5.675474
62.290 5.167514
62.295 4.942043
62.300 4.76515
62.305 4.240537
62.310 3.994507
62.315 3.979426
62.320 3.994612
62.325 4.497468
62.330 4.769813
62.335 4.988568
62.340 5.640019
62.345 5.736633
62.350 5.612367
62.355 5.803051
62.360 5.632518
62.365 5.385348
62.370 5.283115
62.375 5.15845
62.380 4.995369
62.385 4.880192
62.390 5.001326
62.395 5.447445
62.400 5.774987
62.405 5.889474
62.410 5.611413
62.415 5.688883
62.420 5.776278
62.425 5.627174
62.430 5.672114
62.435 5.520911
62.440 5.543037
62.445 5.791014
62.450 5.946386
62.455 5.910749
62.460 5.509274
62.465 5.27527
62.470 4.909697
62.475 4.940234
62.480 4.811662
62.485 4.910496
62.490 5.189475
62.495 5.462893
62.500 5.584535
62.505 6.018003
62.510 5.814747
62.515 6.223953
62.520 6.17412
62.525 6.219087
62.530 6.140925
62.535 5.567758
62.540 5.163235
62.545 4.97942
62.550 4.70012
62.555 4.666821
62.560 4.284391
62.565 4.259163
62.570 4.786471
62.575 5.104374
62.580 5.338804
62.585 5.387115
62.590 5.445051
62.595 5.679335
62.600 5.676851
62.605 5.239341
62.610 4.996509
62.615 4.978371
62.620 4.983374
62.625 4.684635
62.630 4.706938
62.635 4.826541
62.640 5.281209
62.645 5.54035
62.650 5.538223
62.655 5.263595
62.660 5.542461
62.665 5.404397
62.670 5.278257
62.675 4.744752
62.680 4.431423
62.685 4.384584
62.690 4.68209
62.695 4.512753
62.700 4.496266
62.705 4.669258
62.710 4.975274
62.715 4.905964
62.720 4.896313
62.725 4.986683
62.730 5.394926
62.735 5.869729
62.740 6.267505
62.745 6.576032
62.750 6.794373
62.755 7.013882
62.760 6.81309
62.765 6.674253
62.770 6.40568
62.775 6.037171
62.780 5.841702
62.785 5.953185
62.790 6.014163
62.795 5.989179
62.800 5.69583
62.805 5.501639
62.810 5.623222
62.815 5.891824
62.820 5.472299
62.825 5.385831
62.830 5.5826
62.835 5.88517
62.840 5.8497
62.845 5.417604
62.850 5.09461
62.855 5.060985
62.860 4.752157
62.865 4.546375
62.870 4.675571
62.875 4.896094
62.880 5.297539
62.885 5.172723
62.890 5.206208
62.895 5.293557
62.900 5.423672
62.905 5.076493
62.910 4.639461
62.915 4.51009
62.920 4.729094
62.925 5.013265
62.930 5.078186
62.935 4.974505
62.940 5.348782
62.945 5.587165
62.950 5.631656
62.955 5.807677
62.960 5.635227
62.965 5.678494
62.970 5.916914
62.975 5.854001
62.980 5.882462
62.985 5.325697
62.990 5.148015
62.995 4.978225
63.000 4.7531
63.005 4.627738
63.010 4.449863
63.015 4.614741
63.020 5.227479
63.025 5.166369
63.030 5.302275
63.035 5.267236
63.040 5.306135
63.045 5.212504
63.050 4.963786
63.055 4.504061
63.060 4.351235
63.065 4.554241
63.070 4.758586
63.075 4.363121
63.080 4.315132
63.085 4.330173
63.090 4.740952
63.095 4.966711
63.100 4.735509
63.105 4.815186
63.110 5.272225
63.115 5.531171
63.120 5.775003
63.125 5.637035
63.130 5.619718
63.135 5.499399
63.140 5.094373
63.145 4.974437
63.150 4.800422
63.155 4.628818
63.160 4.653512
63.165 4.509597
63.170 4.743838
63.175 4.806653
63.180 4.683902
63.185 4.825275
63.190 4.832593
63.195 4.780654
63.200 4.846557
63.205 4.801195
63.210 5.226041
63.215 5.498913
63.220 5.661321
63.225 5.944761
63.230 6.347433
63.235 6.641486
63.240 6.860997
63.245 6.649515
63.250 6.421925
63.255 6.104807
63.260 6.023835
63.265 5.762578
63.270 5.539738
63.275 5.3241
63.280 5.13532
63.285 5.231541
63.290 5.219367
63.295 4.796316
63.300 4.778963
63.305 4.962104
63.310 5.045824
63.315 5.291982
63.320 5.521488
63.325 5.619061
63.330 5.912505
63.335 5.976388
63.340 6.164076
63.345 5.998942
63.350 5.646401
63.355 5.496264
63.360 5.813092
63.365 5.891405
63.370 5.895713
63.375 5.704551
63.380 6.003571
63.385 5.920081
63.390 5.534577
63.395 5.140122
63.400 4.684835
63.405 4.523602
63.410 4.206672
63.415 4.17373
63.420 4.406784
63.425 4.530686
63.430 4.768035
63.435 4.884057
63.440 4.981776
63.445 5.137482
63.450 5.221957
63.455 5.307087
63.460 5.567935
63.465 5.478034
63.470 5.71297
63.475 5.876898
63.480 6.168494
63.485 6.278453
63.490 6.606252
63.495 6.41754
63.500 6.433831
63.505 6.176104
63.510 5.881303
63.515 5.69307
63.520 5.697336
63.525 5.600149
63.530 5.743846
63.535 6.132782
63.540 6.452742
63.545 6.649343
63.550 6.444971
63.555 6.101677
63.560 5.861999
63.565 5.674078
63.570 5.393386
63.575 5.253666
63.580 5.188069
63.585 5.063913
63.590 5.023799
63.595 5.037348
63.600 5.347908
63.605 5.452414
63.610 5.580229
63.615 5.832271
63.620 6.164805
63.625 6.262756
63.630 5.878685
63.635 5.444798
63.640 5.097821
63.645 4.476206
63.650 4.531662
63.655 4.377438
63.660 4.56397
63.665 4.977993
63.670 5.010689
63.675 5.355612
63.680 5.867841
63.685 5.874989
63.690 5.972224
63.695 5.886804
63.700 6.009013
63.705 6.327535
63.710 6.220568
63.715 6.244675
63.720 6.090396
63.725 6.314634
63.730 6.246918
63.735 5.965528
63.740 5.869977
63.745 5.727876
63.750 5.290507
63.755 4.989257
63.760 4.879847
63.765 5.27735
63.770 5.439118
63.775 5.193236
63.780 5.432981
63.785 5.724435
63.790 5.941129
63.795 5.988484
63.800 5.584176
63.805 5.856596
63.810 6.470628
63.815 6.545366
63.820 6.578206
63.825 6.68312
63.830 6.455606
63.835 6.176042
63.840 5.862346
63.845 5.391322
63.850 5.526967
63.855 5.347553
63.860 4.988462
63.865 5.175682
63.870 5.705819
63.875 5.943706
63.880 6.095621
63.885 5.959865
63.890 6.581036
63.895 6.762205
63.900 6.681142
63.905 6.779534
63.910 6.47861
63.915 5.986047
63.920 5.948809
63.925 5.595559
63.930 5.774933
63.935 6.097606
63.940 5.896221
63.945 6.018166
63.950 6.513706
63.955 6.718237
63.960 6.754056
63.965 6.542643
63.970 6.213909
63.975 6.140247
63.980 5.890917
63.985 5.887439
63.990 5.600015
63.995 5.767632
64.000 6.080445
64.005 6.019088
64.010 6.113227
64.015 6.329349
64.020 6.043647
64.025 6.190066
64.030 6.020859
64.035 5.926346
64.040 6.010688
64.045 5.968832
64.050 6.168628
64.055 6.598737
64.060 6.761968
64.065 6.7602
64.070 6.883606
64.075 7.66511
64.080 7.711432
64.085 7.446591
64.090 7.087296
64.095 6.972868
64.100 7.026365
64.105 7.106031
64.110 6.654924
64.115 7.048116
64.120 7.277567
64.125 7.519032
64.130 7.533631
64.135 7.963619
64.140 7.920489
64.145 8.161662
64.150 8.116589
64.155 8.14569
64.160 8.190675
64.165 8.292113
64.170 8.405758
64.175 8.573961
64.180 8.233917
64.185 8.164815
64.190 8.358512
64.195 8.587842
64.200 8.582838
64.205 8.181232
64.210 8.092256
64.215 8.282707
64.220 8.405276
64.225 8.750502
64.230 8.716015
64.235 9.176964
64.240 9.596259
64.245 10.032167
64.250 10.731283
64.255 10.632504
64.260 10.742084
64.265 11.198466
64.270 11.381789
64.275 11.860996
64.280 12.069668
64.285 12.083452
64.290 12.455855
64.295 12.329252
64.300 12.189355
64.305 12.02867
64.310 11.666676
64.315 11.717113
64.320 12.242634
64.325 12.770047
64.330 12.991501
64.335 13.420712
64.340 14.34271
64.345 15.372289
64.350 15.97792
64.355 16.329937
64.360 16.749926
64.365 17.170588
64.370 17.580784
64.375 18.147383
64.380 18.381483
64.385 18.792889
64.390 19.000771
64.395 19.460615
64.400 20.115664
64.405 20.457891
64.410 20.4681
64.415 21.275949
64.420 21.837086
64.425 21.864334
64.430 22.463585
64.435 23.6891
64.440 24.927038
64.445 26.40589
64.450 27.791033
64.455 28.282061
64.460 29.152449
64.465 28.928772
64.470 28.985966
64.475 29.158459
64.480 28.696011
64.485 28.262909
64.490 27.862604
64.495 27.626793
64.500 27.529696
64.505 26.788038
64.510 26.118746
64.515 26.480579
64.520 26.665125
64.525 27.324404
64.530 27.357199
64.535 27.447401
64.540 27.007679
64.545 26.172056
64.550 25.914892
64.555 25.252569
64.560 24.780989
64.565 24.565666
64.570 24.089952
64.575 24.251474
64.580 24.295475
64.585 23.015581
64.590 22.449741
64.595 21.850296
64.600 21.659721
64.605 21.850142
64.610 21.499968
64.615 21.694679
64.620 22.564287
64.625 22.992153
64.630 23.053652
64.635 22.804811
64.640 22.301611
64.645 22.361919
64.650 22.05702
64.655 20.978048
64.660 20.154636
64.665 20.066954
64.670 19.91555
64.675 19.565071
64.680 19.317848
64.685 19.412601
64.690 19.25388
64.695 18.588253
64.700 18.164242
64.705 17.837658
64.710 18.08902
64.715 18.761774
64.720 18.322889
64.725 17.519627
64.730 17.27043
64.735 16.406307
64.740 16.314245
64.745 15.592052
64.750 14.570017
64.755 14.099134
64.760 13.916478
64.765 13.638384
64.770 13.163336
64.775 13.144293
64.780 13.233001
64.785 12.822591
64.790 12.990453
64.795 13.301463
64.800 13.425649
64.805 13.227044
64.810 12.493555
64.815 12.188957
64.820 12.204246
64.825 11.963159
64.830 11.862855
64.835 11.697668
64.840 12.432145
64.845 12.362938
64.850 11.97643
64.855 11.100206
64.860 10.467289
64.865 10.01205
64.870 9.749681
64.875 8.772707
64.880 8.437702
64.885 8.478487
64.890 8.438622
64.895 8.371383
64.900 8.135933
64.905 8.284498
64.910 8.652708
64.915 8.785483
64.920 8.819081
64.925 9.240672
64.930 9.400368
64.935 9.343083
64.940 8.909299
64.945 8.543984
64.950 8.652244
64.955 8.578482
64.960 8.242073
64.965 8.219908
64.970 7.890824
64.975 7.794449
64.980 7.71567
64.985 7.329023
64.990 7.257648
64.995 7.464875
65.000 7.362683
65.005 7.376652
65.010 7.475438
65.015 7.591535
65.020 7.305491
65.025 6.996358
65.030 6.481503
65.035 6.186076
65.040 6.035827
65.045 5.837256
65.050 5.97973
65.055 6.194841
65.060 6.089018
65.065 6.394392
65.070 6.326867
65.075 6.133822
65.080 6.302768
65.085 6.186197
65.090 6.259715
65.095 6.482491
65.100 6.300715
65.105 6.742358
65.110 7.104526
65.115 7.39664
65.120 7.389685
65.125 7.493335
65.130 7.24978
65.135 7.31069
65.140 7.430795
65.145 7.493227
65.150 6.914367
65.155 6.725049
65.160 6.75872
65.165 6.78113
65.170 6.764302
65.175 6.190309
65.180 6.088102
65.185 6.552597
65.190 6.781539
65.195 7.141173
65.200 7.41537
65.205 7.351031
65.210 7.384879
65.215 7.477172
65.220 7.315576
65.225 7.455349
65.230 6.975462
65.235 6.888309
65.240 6.994204
65.245 7.235105
65.250 6.947578
65.255 6.922812
65.260 6.322475
65.265 6.243414
65.270 6.302171
65.275 6.127238
65.280 5.802382
65.285 5.728996
65.290 5.549384
65.295 5.852345
65.300 6.009148
65.305 5.948121
65.310 6.212772
65.315 6.279179
65.320 6.151886
65.325 6.15618
65.330 6.137671
65.335 5.810222
65.340 5.431711
65.345 5.186872
65.350 5.505982
65.355 5.764383
65.360 5.402543
65.365 5.182496
65.370 5.472517
65.375 5.739176
65.380 5.572052
65.385 5.440416
65.390 5.373826
65.395 5.648215
65.400 5.735337
65.405 5.628102
65.410 5.504731
65.415 5.516395
65.420 5.372401
65.425 5.423762
65.430 5.309499
65.435 5.071617
65.440 4.728478
65.445 4.977238
65.450 5.030737
65.455 4.774977
65.460 4.729192
65.465 5.176979
65.470 5.810806
65.475 5.927202
65.480 5.910316
65.485 6.006122
65.490 6.464193
65.495 6.502514
65.500 6.409895
65.505 6.107675
65.510 6.364815
65.515 6.223981
65.520 6.323678
65.525 5.971664
65.530 6.134687
65.535 6.125872
65.540 6.270287
65.545 6.218972
65.550 6.56261
65.555 6.317618
65.560 6.122498
65.565 5.795289
65.570 5.660535
65.575 5.495596
65.580 5.492189
65.585 5.241203
65.590 5.347225
65.595 5.563422
65.600 5.744767
65.605 5.867385
65.610 5.793317
65.615 5.558144
65.620 5.543038
65.625 5.710086
65.630 6.172286
65.635 6.107885
65.640 5.755644
65.645 5.607822
65.650 5.78106
65.655 5.832603
65.660 5.56799
65.665 4.66219
65.670 4.628402
65.675 4.858423
65.680 4.849949
65.685 4.874458
65.690 4.652788
65.695 4.579662
65.700 4.833978
65.705 4.559988
65.710 4.511489
65.715 4.789055
65.720 5.096699
65.725 5.374979
65.730 5.450357
65.735 5.300478
65.740 5.469661
65.745 5.447052
65.750 5.029216
65.755 4.854982
65.760 4.770267
65.765 4.655622
65.770 5.007249
65.775 5.155283
65.780 5.499493
65.785 5.650225
65.790 5.619947
65.795 5.909188
65.800 6.032819
65.805 5.675648
65.810 5.428248
65.815 5.345835
65.820 5.304817
65.825 5.244106
65.830 5.374696
65.835 5.406362
65.840 5.553629
65.845 5.502931
65.850 5.537389
65.855 5.574498
65.860 5.35132
65.865 5.147115
65.870 5.253897
65.875 5.169378
65.880 5.290974
65.885 4.989552
65.890 4.817342
65.895 4.741027
65.900 4.432163
65.905 4.431102
65.910 4.831541
65.915 4.918268
65.920 4.941175
65.925 5.393711
65.930 5.888721
65.935 6.395249
65.940 6.406884
65.945 6.052587
65.950 6.256342
65.955 6.520843
65.960 6.115997
65.965 5.716325
65.970 5.295607
65.975 5.499333
65.980 5.733779
65.985 5.673454
65.990 5.531877
65.995 5.70004
66.000 5.635714
66.005 5.96881
66.010 5.732502
66.015 5.423239
66.020 5.046098
66.025 5.227724
66.030 5.384799
66.035 5.665124
66.040 5.304149
66.045 5.130753
66.050 5.033801
66.055 5.015184
66.060 4.88485
66.065 4.658925
66.070 4.630305
66.075 5.033806
66.080 5.51774
66.085 5.66039
66.090 5.592327
66.095 5.447428
66.100 5.536258
66.105 5.281196
66.110 5.298977
66.115 5.04988
66.120 4.7953
66.125 4.868417
66.130 4.971951
66.135 4.717175
66.140 4.68482
66.145 4.670789
66.150 4.7363
66.155 5.264588
66.160 5.527849
66.165 5.713553
66.170 5.840551
66.175 5.878473
66.180 5.548399
66.185 5.360888
66.190 5.044433
66.195 4.642344
66.200 4.574041
66.205 4.748834
66.210 4.835577
66.215 4.956069
66.220 4.928002
66.225 4.903148
66.230 5.382981
66.235 5.453269
66.240 5.402504
66.245 5.290059
66.250 5.31496
66.255 5.167227
66.260 5.148767
66.265 5.053298
66.270 4.85143
66.275 4.738339
66.280 4.789751
66.285 5.001848
66.290 5.182712
66.295 5.166607
66.300 4.822916
66.305 5.051917
66.310 5.363918
66.315 5.465325
66.320 5.299902
66.325 5.336572
66.330 5.348337
66.335 5.42554
66.340 5.037318
66.345 4.636494
66.350 4.332947
66.355 4.1048
66.360 3.802745
66.365 3.724793
66.370 3.739534
66.375 4.158071
66.380 4.388454
66.385 4.698856
66.390 5.270351
66.395 5.867195
66.400 6.251377
66.405 6.07273
66.410 6.18602
66.415 6.402518
66.420 6.226328
66.425 6.004553
66.430 5.633084
66.435 5.527812
66.440 5.841607
66.445 5.728344
66.450 5.618179
66.455 5.529346
66.460 5.535308
66.465 5.664068
66.470 5.719481
66.475 5.616934
66.480 5.715224
66.485 5.886674
66.490 6.231338
66.495 6.31038
66.500 6.460356
66.505 6.375239
66.510 6.353886
66.515 6.052629
66.520 5.819537
66.525 5.746635
66.530 5.507494
66.535 5.575459
66.540 5.483645
66.545 5.398865
66.550 5.675798
66.555 5.698021
66.560 5.647579
66.565 5.417322
66.570 5.518017
66.575 5.637314
66.580 5.597491
66.585 5.207115
66.590 4.816041
66.595 4.585921
66.600 4.596925
66.605 4.344176
66.610 4.349963
66.615 4.340556
66.620 4.779562
66.625 5.253795
66.630 5.583927
66.635 5.789078
66.640 5.906756
66.645 6.099909
66.650 6.142809
66.655 5.836705
66.660 5.831136
66.665 5.668818
66.670 5.495889
66.675 5.39645
66.680 5.125345
66.685 4.942505
66.690 5.149428
66.695 5.048932
66.700 5.117046
66.705 5.191836
66.710 5.346337
66.715 5.697028
66.720 5.880963
66.725 5.500797
66.730 5.570682
66.735 5.817701
66.740 5.635159
66.745 5.407712
66.750 5.299133
66.755 5.25047
66.760 5.687249
66.765 5.475562
66.770 5.19421
66.775 5.127642
66.780 5.028451
66.785 5.161597
66.790 5.331211
66.795 5.060513
66.800 5.10656
66.805 5.171029
66.810 5.406882
66.815 5.278194
66.820 4.94309
66.825 5.096401
66.830 5.501184
66.835 5.83257
66.840 6.159384
66.845 6.189556
66.850 6.135675
66.855 6.324257
66.860 5.939956
66.865 5.613632
66.870 5.295575
66.875 4.853168
66.880 5.058652
66.885 5.61454
66.890 5.812889
66.895 6.104756
66.900 5.905041
66.905 5.879609
66.910 6.032077
66.915 5.82578
66.920 5.278172
66.925 4.611176
66.930 4.341465
66.935 4.625119
66.940 4.652722
66.945 4.642265
66.950 4.949037
66.955 5.226178
66.960 5.614847
66.965 5.844996
66.970 5.689095
66.975 5.622826
66.980 5.324096
66.985 5.086034
66.990 4.770623
66.995 4.7981
67.000 4.681514
67.005 4.807984
67.010 4.681121
67.015 4.881744
67.020 4.963968
67.025 5.117393
67.030 5.236733
67.035 5.423219
67.040 5.693317
67.045 6.193811
67.050 6.292706
67.055 6.43012
67.060 6.584889
67.065 6.677814
67.070 6.775669
67.075 6.633646
67.080 6.588061
67.085 6.325538
67.090 6.197625
67.095 6.073243
67.100 5.795881
67.105 5.537294
67.110 5.513429
67.115 5.654665
67.120 5.955645
67.125 5.881104
67.130 5.900936
67.135 5.998475
67.140 6.001124
67.145 5.727952
67.150 5.336009
67.155 5.235889
67.160 5.555868
67.165 5.629486
67.170 5.713137
67.175 5.745614
67.180 5.80868
67.185 5.956974
67.190 5.871617
67.195 5.583101
67.200 5.307845
67.205 5.297489
67.210 5.535319
67.215 5.781521
67.220 5.632157
67.225 5.616495
67.230 5.621606
67.235 5.890163
67.240 5.877625
67.245 5.761559
67.250 5.53592
67.255 5.651695
67.260 5.82701
67.265 6.010722
67.270 5.753051
67.275 5.603382
67.280 5.43942
67.285 5.797233
67.290 6.039098
67.295 5.85403
67.300 6.032184
67.305 5.897978
67.310 5.716602
67.315 5.824086
67.320 5.464839
67.325 5.112884
67.330 5.208632
67.335 5.251084
67.340 5.616655
67.345 5.968643
67.350 6.289736
67.355 6.500098
67.360 6.59909
67.365 6.169357
67.370 5.776
67.375 5.905496
67.380 5.762385
67.385 5.684552
67.390 5.989242
67.395 6.05881
67.400 6.355739
67.405 6.674586
67.410 6.472854
67.415 6.47646
67.420 6.21602
67.425 5.720436
67.430 5.820232
67.435 5.805771
67.440 5.868617
67.445 6.071596
67.450 5.909502
67.455 6.04304
67.460 6.416611
67.465 6.368265
67.470 6.426076
67.475 6.227515
67.480 5.97532
67.485 6.020092
67.490 5.960181
67.495 5.600879
67.500 5.591983
67.505 5.673764
67.510 5.514714
67.515 5.592263
67.520 5.851758
67.525 6.487549
67.530 6.977727
67.535 7.111759
67.540 6.790947
67.545 6.985852
67.550 7.318277
67.555 7.385757
67.560 7.18364
67.565 6.915329
67.570 7.415279
67.575 7.886899
67.580 8.470029
67.585 8.475098
67.590 8.478623
67.595 8.323088
67.600 8.37048
67.605 8.397348
67.610 8.447362
67.615 8.313275
67.620 8.542012
67.625 8.363493
67.630 8.145639
67.635 7.983596
67.640 7.753761
67.645 7.541425
67.650 7.213174
67.655 7.198442
67.660 7.609132
67.665 8.2605
67.670 8.696911
67.675 9.106606
67.680 9.666101
67.685 10.569988
67.690 10.789639
67.695 11.013163
67.700 10.794442
67.705 11.027349
67.710 10.969509
67.715 11.208385
67.720 11.175347
67.725 11.613707
67.730 11.801173
67.735 12.333878
67.740 12.677808
67.745 13.375651
67.750 13.472137
67.755 13.533175
67.760 13.608861
67.765 13.81757
67.770 13.467822
67.775 13.182031
67.780 13.122466
67.785 13.628896
67.790 13.796876
67.795 13.924928
67.800 14.063316
67.805 14.814213
67.810 14.912482
67.815 15.021917
67.820 15.133965
67.825 15.591974
67.830 15.556213
67.835 15.559108
67.840 15.672547
67.845 16.540554
67.850 16.945286
67.855 16.942331
67.860 16.599621
67.865 16.735054
67.870 16.806795
67.875 16.528582
67.880 16.391903
67.885 15.803464
67.890 14.992175
67.895 15.042599
67.900 15.039861
67.905 15.341462
67.910 15.738238
67.915 15.093509
67.920 14.889145
67.925 15.148353
67.930 15.003337
67.935 15.269337
67.940 14.629976
67.945 14.039372
67.950 14.353998
67.955 14.775897
67.960 15.860726
67.965 16.049154
67.970 15.668719
67.975 15.705813
67.980 15.899647
67.985 16.144495
67.990 15.658051
67.995 13.867353
68.000 13.505425
68.005 13.6064
68.010 13.706301
68.015 13.249894
68.020 12.818309
68.025 12.998757
68.030 13.677991
68.035 13.381453
68.040 12.969662
68.045 13.008071
68.050 12.682847
68.055 12.376121
68.060 12.08206
68.065 11.823732
68.070 11.815235
68.075 11.305941
68.080 10.752347
68.085 10.694281
68.090 10.742594
68.095 10.703844
68.100 10.370916
68.105 10.696125
68.110 10.959557
68.115 10.731687
68.120 10.451382
68.125 10.46161
68.130 10.295427
68.135 9.542271
68.140 8.955397
68.145 8.634395
68.150 8.803743
68.155 9.020509
68.160 8.378536
68.165 8.399382
68.170 8.980551
68.175 8.81287
68.180 8.641152
68.185 8.622876
68.190 8.518506
68.195 8.709064
68.200 8.398873
68.205 7.856313
68.210 7.759814
68.215 7.622205
68.220 7.220588
68.225 7.009278
68.230 6.790398
68.235 6.724739
68.240 6.988731
68.245 7.493854
68.250 7.602762
68.255 7.561768
68.260 7.619698
68.265 7.678193
68.270 7.774271
68.275 7.632546
68.280 7.17901
68.285 6.910189
68.290 6.863911
68.295 6.65959
68.300 6.505629
68.305 6.688191
68.310 6.552676
68.315 6.350167
68.320 6.484324
68.325 6.40163
68.330 6.606205
68.335 6.552014
68.340 6.463102
68.345 6.469138
68.350 6.715466
68.355 6.524747
68.360 6.5009
68.365 6.318597
68.370 6.354066
68.375 6.041034
68.380 5.801328
68.385 5.593557
68.390 5.89186
68.395 5.880508
68.400 5.923379
68.405 5.998246
68.410 6.197433
68.415 6.101142
68.420 5.969823
68.425 5.823613
68.430 6.178045
68.435 6.075262
68.440 6.014123
68.445 5.994796
68.450 6.103636
68.455 6.038846
68.460 5.932628
68.465 5.550945
68.470 5.457067
68.475 5.439467
68.480 5.278796
68.485 5.186924
68.490 5.582918
68.495 5.883529
68.500 5.889624
68.505 5.767589
68.510 5.82278
68.515 5.989037
68.520 6.095281
68.525 5.911821
68.530 5.642298
68.535 5.634567
68.540 5.825346
68.545 5.88988
68.550 6.017979
68.555 6.22428
68.560 6.441481
68.565 6.538428
68.570 6.516593
68.575 6.428962
68.580 6.122691
68.585 6.228602
68.590 6.042795
68.595 5.868118
68.600 6.119517
68.605 6.13109
68.610 6.24511
68.615 6.531597
68.620 6.200534
68.625 6.090429
68.630 5.968137
68.635 5.906202
68.640 6.023869
68.645 5.839112
68.650 5.628253
68.655 5.674
68.660 5.572034
68.665 5.376979
68.670 5.253809
68.675 5.43687
68.680 5.409417
68.685 5.250976
68.690 5.356991
68.695 5.405511
68.700 5.473517
68.705 5.456975
68.710 5.289557
68.715 5.581135
68.720 5.850433
68.725 5.801778
68.730 5.826716
68.735 5.491535
68.740 5.365144
68.745 5.470364
68.750 5.761616
68.755 5.801009
68.760 5.68281
68.765 5.846081
68.770 6.198584
68.775 6.252608
68.780 5.983938
68.785 5.510332
68.790 5.345582
68.795 5.21423
68.800 5.328524
68.805 5.305971
68.810 5.504786
68.815 5.570433
68.820 5.655994
68.825 5.817859
68.830 5.995301
68.835 5.781845
68.840 5.616179
68.845 5.585083
68.850 5.842992
68.855 5.680936
68.860 5.7313
68.865 5.907559
68.870 5.988048
68.875 5.954147
68.880 5.63039
68.885 5.441576
68.890 5.509019
68.895 5.185084
68.900 5.02818
68.905 5.254868
68.910 5.533338
68.915 5.540926
68.920 5.453747
68.925 5.223588
68.930 5.282189
68.935 5.217086
68.940 4.755411
68.945 4.763965
68.950 5.168221
68.955 5.282581
68.960 5.404335
68.965 5.666365
68.970 5.78411
68.975 6.166738
68.980 6.017518
68.985 5.829147
68.990 5.725565
68.995 5.764605
69.000 5.505509
69.005 5.111412
69.010 4.894368
69.015 4.927949
69.020 5.053526
69.025 5.106195
69.030 5.057726
69.035 5.29667
69.040 5.44302
69.045 5.420921
69.050 5.272478
69.055 5.134268
69.060 5.437244
69.065 5.521827
69.070 5.334375
69.075 5.778732
69.080 6.035694
69.085 6.212885
69.090 6.248995
69.095 6.077116
69.100 6.004092
69.105 6.014132
69.110 5.56286
69.115 5.203145
69.120 4.868463
69.125 4.687719
69.130 4.79671
69.135 5.0808
69.140 5.07234
69.145 5.125885
69.150 5.387212
69.155 5.697097
69.160 5.938541
69.165 5.788642
69.170 5.674802
69.175 5.769791
69.180 5.759091
69.185 5.922403
69.190 5.573889
69.195 5.466959
69.200 5.363491
69.205 5.376193
69.210 5.318162
69.215 5.410529
69.220 5.235911
69.225 5.269303
69.230 5.200464
69.235 5.337512
69.240 5.459465
69.245 5.667848
69.250 5.810576
69.255 6.009038
69.260 6.339565
69.265 6.525437
69.270 6.311723
69.275 6.119785
69.280 5.956405
69.285 5.872614
69.290 5.839192
69.295 5.862288
69.300 5.677237
69.305 5.630506
69.310 5.507072
69.315 5.508632
69.320 5.439365
69.325 5.136174
69.330 4.79025
69.335 4.628413
69.340 4.699722
69.345 4.79722
69.350 5.067546
69.355 5.124908
69.360 5.405368
69.365 5.63683
69.370 6.132185
69.375 6.056936
69.380 5.899781
69.385 5.402493
69.390 5.255778
69.395 4.973222
69.400 4.570357
69.405 4.227751
69.410 4.33574
69.415 4.265015
69.420 4.414894
69.425 4.732322
69.430 4.865529
69.435 4.883232
69.440 4.83339
69.445 4.961936
69.450 5.035417
69.455 4.960962
69.460 4.837852
69.465 4.83142
69.470 4.777166
69.475 4.707669
69.480 4.639926
69.485 4.863116
69.490 5.079826
69.495 5.002468
69.500 4.998904
69.505 5.399152
69.510 5.318279
69.515 5.060754
69.520 4.973259
69.525 4.588305
69.530 4.697945
69.535 4.958872
69.540 4.668171
69.545 4.834914
69.550 4.861013
69.555 5.047369
69.560 5.187039
69.565 4.955827
69.570 4.750399
69.575 4.860235
69.580 5.0926
69.585 5.53177
69.590 5.426929
69.595 5.384508
69.600 5.779851
69.605 6.037345
69.610 6.254199
69.615 5.963433
69.620 5.795465
69.625 6.107106
69.630 6.119883
69.635 5.983068
69.640 5.887667
69.645 5.852242
69.650 5.726425
69.655 5.386208
69.660 4.831922
69.665 4.660199
69.670 4.393266
69.675 4.432719
69.680 4.586617
69.685 4.835638
69.690 5.246705
69.695 5.468223
69.700 5.432409
69.705 5.697291
69.710 5.529191
69.715 5.290537
69.720 5.186408
69.725 4.715063
69.730 4.632255
69.735 4.799835
69.740 4.797013
69.745 4.971025
69.750 5.105189
69.755 5.237516
69.760 5.539232
69.765 5.69951
69.770 5.331217
69.775 5.173826
69.780 5.057301
69.785 4.917078
69.790 4.559391
69.795 4.269617
69.800 4.221014
69.805 4.677629
69.810 4.815469
69.815 4.665403
69.820 4.637057
69.825 4.75944
69.830 5.008655
69.835 5.295681
69.840 5.362008
69.845 5.251235
69.850 5.226598
69.855 5.461861
69.860 5.696378
69.865 6.192982
69.870 5.87209
69.875 5.526963
69.880 5.548833
69.885 5.465091
69.890 5.791223
69.895 5.487611
69.900 5.204452
69.905 5.47091
69.910 5.802499
69.915 5.932211
69.920 5.87753
69.925 5.133433
69.930 5.008914
69.935 4.960569
69.940 5.025718
69.945 4.757106
69.950 4.554753
69.955 4.756821
69.960 5.282829
69.965 5.593375
69.970 5.366943
69.975 5.045959
69.980 5.217691
69.985 5.234626
69.990 5.147918
69.995 4.932645
70.000 4.871393
70.005 5.049007
70.010 5.266732
70.015 4.868048
70.020 5.037387
70.025 5.226387
70.030 5.028471
70.035 4.869942
70.040 4.99657
70.045 4.915179
70.050 5.038682
70.055 5.01953
70.060 4.906916
70.065 5.13349
70.070 5.361213
70.075 5.248854
70.080 5.646837
70.085 5.939753
70.090 6.057592
70.095 6.113742
70.100 5.943902
70.105 5.869312
70.110 5.887975
70.115 5.688145
70.120 5.452696
70.125 5.375447
70.130 5.325479
70.135 5.443053
70.140 5.418106
70.145 5.507507
70.150 5.80463
70.155 5.881342
70.160 5.837877
70.165 5.797032
70.170 5.647336
70.175 5.594347
70.180 5.324387
70.185 5.17625
70.190 4.937812
70.195 5.129286
70.200 5.19148
70.205 5.244013
70.210 4.93246
70.215 4.879388
70.220 4.379404
70.225 4.454848
70.230 4.417384
70.235 4.179048
70.240 4.447638
70.245 4.470952
70.250 4.911798
70.255 5.218375
70.260 5.212142
70.265 5.173978
70.270 5.300151
70.275 5.158012
70.280 5.226967
70.285 4.774683
70.290 4.645496
70.295 4.487029
70.300 4.470338
70.305 4.423406
70.310 4.565763
70.315 4.922152
70.320 4.947603
70.325 5.067931
70.330 5.103342
70.335 5.351146
70.340 5.376786
70.345 5.362607
70.350 5.520624
70.355 5.627802
70.360 5.702356
70.365 5.738639
70.370 5.744371
70.375 5.863249
70.380 5.720599
70.385 5.764167
70.390 5.661921
70.395 5.717066
70.400 5.640189
70.405 5.364761
70.410 5.145585
70.415 4.93415
70.420 4.848391
70.425 4.834318
70.430 4.650058
70.435 4.616641
70.440 4.546178
70.445 5.116092
70.450 5.395505
70.455 5.266516
70.460 5.417597
70.465 5.484694
70.470 5.628648
70.475 5.816734
70.480 5.551353
70.485 5.021075
70.490 4.877256
70.495 4.856608
70.500 4.943196
70.505 4.871511
70.510 4.883294
70.515 5.031719
70.520 5.382271
70.525 5.414559
70.530 5.624668
70.535 5.703952
70.540 5.87247
70.545 5.484225
70.550 5.385932
70.555 5.249053
70.560 5.114075
70.565 4.889375
70.570 4.675283
70.575 4.515393
70.580 4.645792
70.585 4.496501
70.590 4.562673
70.595 4.893057
70.600 5.148201
70.605 5.296826
70.610 5.157549
70.615 5.143692
70.620 5.220765
70.625 5.170171
70.630 5.000151
70.635 4.520988
70.640 4.788488
70.645 4.934869
70.650 5.129617
70.655 5.194489
70.660 5.384885
70.665 5.477124
70.670 5.606082
70.675 5.461447
70.680 5.525173
70.685 5.476601
70.690 5.375282
70.695 5.411376
70.700 5.546932
70.705 5.595461
70.710 5.560141
70.715 5.583264
70.720 5.480741
70.725 5.529886
70.730 5.615003
70.735 5.526867
70.740 5.435964
70.745 5.55065
70.750 5.600459
70.755 5.476038
70.760 5.547457
70.765 5.28869
70.770 4.953722
70.775 4.900707
70.780 4.496976
70.785 4.551806
70.790 4.656359
70.795 4.652728
70.800 5.196976
70.805 5.428324
70.810 5.588616
70.815 5.777473
70.820 5.899376
70.825 5.618979
70.830 5.199247
70.835 4.753076
70.840 4.954018
70.845 4.828913
70.850 4.549661
70.855 4.490264
70.860 4.908357
70.865 5.548146
70.870 5.695854
70.875 5.599137
70.880 5.554204
70.885 5.718229
70.890 5.562898
70.895 5.581338
70.900 5.501113
70.905 5.524402
70.910 5.431538
70.915 5.573631
70.920 5.654102
70.925 5.540248
70.930 5.513793
70.935 5.38255
70.940 5.483856
70.945 5.587901
70.950 5.59978
70.955 5.668036
70.960 5.498802
70.965 5.459171
70.970 5.593944
70.975 5.317276
70.980 5.617666
70.985 5.614598
70.990 5.719199
70.995 5.633634
71.000 5.372011
71.005 5.15705
71.010 5.188321
71.015 4.714801
71.020 4.532714
71.025 4.695754
71.030 4.821694
71.035 4.601732
71.040 4.246587
71.045 4.326292
71.050 4.518499
71.055 4.636481
71.060 4.57015
71.065 4.850081
71.070 4.812739
71.075 5.18636
71.080 4.794224
71.085 4.781776
71.090 4.610498
71.095 4.512983
71.100 4.629139
71.105 4.931987
71.110 5.103083
71.115 5.45075
71.120 5.762597
71.125 5.823677
71.130 5.954314
71.135 5.908047
71.140 6.117414
71.145 6.335298
71.150 6.539008
71.155 6.2854
71.160 6.311951
71.165 6.202109
71.170 6.145255
71.175 5.514372
71.180 5.310352
71.185 5.355621
71.190 5.492528
71.195 5.471044
71.200 5.16377
71.205 5.10424
71.210 5.545701
71.215 5.357625
71.220 5.121556
71.225 4.966453
71.230 4.959543
71.235 5.279434
71.240 5.258475
71.245 5.157893
71.250 4.952512
71.255 4.734932
71.260 4.618126
71.265 4.652394
71.270 4.561918
71.275 4.476703
71.280 4.616387
71.285 4.885969
71.290 5.007246
71.295 5.215286
71.300 5.29536
71.305 5.422854
71.310 5.49335
71.315 5.485622
71.320 5.46638
71.325 5.292446
71.330 5.029635
71.335 4.836452
71.340 4.859817
71.345 4.588295
71.350 4.43662
71.355 4.53644
71.360 4.740408
71.365 5.034727
71.370 5.102158
71.375 5.163826
71.380 5.391407
71.385 5.227726
71.390 5.530894
71.395 5.746545
71.400 5.404288
71.405 5.477368
71.410 5.7701
71.415 5.970348
71.420 6.110799
71.425 5.490074
71.430 5.373053
71.435 5.452073
71.440 5.163309
71.445 4.750627
71.450 4.612185
71.455 4.569911
71.460 4.680988
71.465 4.574941
71.470 4.504937
71.475 4.590913
71.480 4.627717
71.485 4.321842
71.490 4.352418
71.495 4.551735
71.500 4.734683
71.505 4.654465
71.510 4.701345
71.515 4.946496
71.520 5.203325
71.525 5.006239
71.530 4.511876
71.535 4.566798
71.540 4.623646
71.545 4.929919
71.550 4.708364
71.555 4.727226
71.560 4.981476
71.565 5.269351
71.570 5.042841
71.575 4.891438
71.580 4.658421
71.585 4.533206
71.590 4.551916
71.595 4.33369
71.600 4.221901
71.605 4.348571
71.610 4.385953
71.615 4.359617
71.620 4.619426
71.625 4.669479
71.630 5.200323
71.635 5.33775
71.640 5.509786
71.645 5.704006
71.650 5.67693
71.655 5.504364
71.660 5.573984
71.665 5.461762
71.670 5.370011
71.675 5.499366
71.680 5.0848
71.685 5.124047
71.690 5.214334
71.695 5.179847
71.700 5.222662
71.705 5.234824
71.710 5.352417
71.715 5.546012
71.720 5.577352
71.725 5.745157
71.730 5.591559
71.735 5.73142
71.740 5.679876
71.745 5.428317
71.750 5.185551
71.755 4.929317
71.760 4.623653
71.765 4.674601
71.770 4.566845
71.775 4.859536
71.780 5.402641
71.785 5.73926
71.790 5.970396
71.795 6.325735
71.800 6.752419
71.805 6.844901
71.810 6.642718
71.815 6.458441
71.820 6.297804
71.825 5.958017
71.830 5.704804
71.835 5.129142
71.840 4.817878
71.845 4.56724
71.850 4.446724
71.855 4.570336
71.860 4.893861
71.865 4.647663
71.870 4.592647
71.875 4.813907
71.880 4.874762
71.885 4.944107
71.890 4.745256
71.895 4.693994
71.900 4.969726
71.905 5.156453
71.910 5.03368
71.915 4.810815
71.920 4.551444
71.925 5.100344
71.930 5.318279
71.935 5.416955
71.940 5.620429
71.945 5.677397
71.950 5.685935
71.955 5.747993
71.960 5.48934
71.965 5.458127
71.970 5.334614
71.975 5.158822
71.980 5.27771
71.985 5.627594
71.990 5.648483
71.995 5.421792
72.000 5.536852
72.005 5.354702
72.010 5.099086
72.015 5.060166
72.020 5.076943
72.025 5.142124
72.030 5.12554
72.035 4.69636
72.040 4.825153
72.045 4.895707
72.050 4.859874
72.055 4.338779
72.060 4.30131
72.065 4.607021
72.070 4.722245
72.075 4.499507
72.080 4.460974
72.085 4.883511
72.090 5.265132
72.095 5.357471
72.100 5.127804
72.105 5.0303
72.110 5.192606
72.115 5.29425
72.120 4.953993
72.125 5.083343
72.130 4.927355
72.135 4.859722
72.140 5.028842
72.145 5.065224
72.150 4.941101
72.155 4.685686
72.160 4.424256
72.165 4.572807
72.170 4.88045
72.175 4.887909
72.180 5.082047
72.185 5.372248
72.190 5.466029
72.195 5.51969
72.200 5.556708
72.205 5.414468
72.210 5.501523
72.215 5.420168
72.220 5.302666
72.225 5.364635
72.230 5.219602
72.235 5.095916
72.240 5.005284
72.245 5.164896
72.250 5.12435
72.255 5.307375
72.260 5.404237
72.265 5.446078
72.270 5.355883
72.275 5.399426
72.280 5.497845
72.285 5.780414
72.290 5.741998
72.295 6.171173
72.300 6.160926
72.305 6.350034
72.310 5.842394
72.315 5.425437
72.320 5.275241
72.325 4.990382
72.330 4.809313
72.335 4.706855
72.340 4.517739
72.345 5.00601
72.350 5.065884
72.355 4.867016
72.360 4.578768
72.365 4.131574
72.370 4.216845
72.375 4.431024
72.380 4.420704
72.385 4.475708
72.390 4.782454
72.395 5.113722
72.400 5.432151
72.405 5.509813
72.410 5.152885
72.415 4.884564
72.420 4.68591
72.425 4.574398
72.430 4.781449
72.435 4.912745
72.440 5.148576
72.445 5.44699
72.450 5.286839
72.455 5.417702
72.460 5.124314
72.465 4.836417
72.470 4.704631
72.475 4.640714
72.480 4.73091
72.485 4.933222
72.490 4.966866
72.495 4.9884
72.500 5.121122
72.505 4.887793
72.510 4.701506
72.515 4.840972
72.520 5.145584
72.525 5.3028
72.530 5.253033
72.535 5.400875
72.540 5.363246
72.545 5.38366
72.550 4.974798
72.555 4.557822
72.560 4.830854
72.565 5.005017
72.570 4.775851
72.575 4.953841
72.580 4.964676
72.585 5.428873
72.590 5.566348
72.595 5.582672
72.600 5.317249
72.605 5.233588
72.610 5.120824
72.615 4.988548
72.620 4.446898
72.625 4.316077
72.630 4.305101
72.635 4.390596
72.640 4.32479
72.645 4.78017
72.650 5.06866
72.655 5.268368
72.660 5.480535
72.665 5.797478
72.670 6.093661
72.675 6.000828
72.680 5.385599
72.685 5.387722
72.690 5.435274
72.695 5.097073
72.700 4.661564
72.705 4.641936
72.710 4.763118
72.715 4.841359
72.720 4.729725
72.725 4.791262
72.730 4.914374
72.735 5.249887
72.740 5.132658
72.745 5.148724
72.750 5.290281
72.755 5.271762
72.760 5.296364
72.765 5.220644
72.770 4.875902
72.775 4.856885
72.780 4.954275
72.785 4.643229
72.790 4.366307
72.795 3.979027
72.800 3.996442
72.805 4.129342
72.810 4.005934
72.815 3.865452
72.820 4.205968
72.825 4.224718
72.830 4.390664
72.835 4.401281
72.840 4.532899
72.845 4.712974
72.850 4.748711
72.855 4.950469
72.860 5.07041
72.865 5.193787
72.870 5.199965
72.875 5.217002
72.880 5.257983
72.885 5.298172
72.890 5.457474
72.895 5.656093
72.900 5.49278
72.905 5.356601
72.910 5.332935
72.915 4.973361
72.920 5.254657
72.925 4.983134
72.930 5.08461
72.935 5.442963
72.940 5.607488
72.945 5.554973
72.950 5.688171
72.955 5.227185
72.960 5.358851
72.965 5.147684
72.970 4.805463
72.975 4.844489
72.980 4.935027
72.985 4.76507
72.990 4.559042
72.995 4.390177
73.000 4.453172
73.005 4.756878
73.010 4.684937
73.015 4.643953
73.020 4.607483
73.025 4.77141
73.030 4.916266
73.035 4.742812
73.040 4.835167
73.045 5.045829
73.050 5.14658
73.055 5.45175
73.060 5.244709
73.065 5.160519
73.070 5.12131
73.075 4.705
73.080 4.60006
73.085 4.659002
73.090 4.623851
73.095 4.871452
73.100 5.010319
73.105 5.13031
73.110 5.46823
73.115 5.685211
73.120 5.557143
73.125 5.371552
73.130 5.152597
73.135 4.710717
73.140 4.561941
73.145 4.303153
73.150 4.24353
73.155 4.233594
73.160 4.551742
73.165 4.837823
73.170 5.033553
73.175 5.189758
73.180 5.172641
73.185 5.605875
73.190 5.821406
73.195 5.608243
73.200 5.497275
73.205 5.405271
73.210 5.296921
73.215 5.368494
73.220 4.978301
73.225 4.601435
73.230 4.773229
73.235 5.012845
73.240 5.260424
73.245 5.222959
73.250 5.056194
73.255 5.412232
73.260 5.479755
73.265 5.159647
73.270 5.003431
73.275 4.944313
73.280 4.795863
73.285 4.777311
73.290 4.668463
73.295 4.879684
73.300 5.149574
73.305 5.169742
73.310 5.33947
73.315 5.381011
73.320 5.52014
73.325 5.518707
73.330 5.548104
73.335 5.690433
73.340 5.653441
73.345 5.543999
73.350 5.498755
73.355 5.29389
73.360 5.4139
73.365 5.214774
73.370 5.022415
73.375 5.29868
73.380 5.360771
73.385 5.045641
73.390 5.082488
73.395 4.905932
73.400 4.981767
73.405 4.738569
73.410 4.398019
73.415 4.565714
73.420 4.892267
73.425 4.898292
73.430 4.98071
73.435 4.72485
73.440 4.730305
73.445 4.817718
73.450 4.760645
73.455 4.868562
73.460 4.947861
73.465 5.155922
73.470 5.578857
73.475 5.442792
73.480 5.256396
73.485 5.023389
73.490 4.9406
73.495 4.961269
73.500 4.477986
73.505 4.366517
73.510 4.576351
73.515 4.790656
73.520 4.861553
73.525 4.662608
73.530 4.661689
73.535 5.085169
73.540 5.157719
73.545 5.304009
73.550 5.42874
73.555 5.712895
73.560 5.976112
73.565 5.780385
73.570 5.500704
73.575 5.507863
73.580 5.552701
73.585 5.390275
73.590 5.049889
73.595 4.738626
73.600 4.899373
73.605 4.998963
73.610 4.74871
73.615 4.682204
73.620 4.495759
73.625 4.476661
73.630 4.637332
73.635 4.858809
73.640 4.912443
73.645 4.709994
73.650 4.714117
73.655 5.06837
73.660 5.011388
73.665 4.724499
73.670 4.28871
73.675 4.103643
73.680 4.546993
73.685 4.491982
73.690 4.747272
73.695 4.907555
73.700 5.254794
73.705 5.351787
73.710 5.482064
73.715 5.254618
73.720 5.35502
73.725 5.211819
73.730 5.233634
73.735 5.202513
73.740 5.208027
73.745 5.281977
73.750 5.158339
73.755 4.766217
73.760 4.760018
73.765 4.577858
73.770 4.548664
73.775 4.590685
73.780 4.640313
73.785 4.789002
73.790 4.651201
73.795 4.636916
73.800 4.400654
73.805 4.366991
73.810 4.484448
73.815 4.698405
73.820 4.913599
73.825 5.312058
73.830 5.261691
73.835 5.540228
73.840 5.441612
73.845 5.550944
73.850 5.580183
73.855 5.570745
73.860 5.456238
73.865 5.614359
73.870 5.61876
73.875 5.786111
73.880 5.815932
73.885 5.433286
73.890 5.250756
73.895 5.042556
73.900 4.783576
73.905 4.839555
73.910 4.709894
73.915 4.671532
73.920 4.530507
73.925 4.509353
73.930 4.688138
73.935 4.755644
73.940 4.697702
73.945 4.157766
73.950 3.969146
73.955 4.295613
73.960 4.363923
73.965 4.347604
73.970 4.517061
73.975 4.56405
73.980 5.001329
73.985 5.279075
73.990 5.270638
73.995 5.203652
74.000 5.325604
74.005 5.303533
74.010 5.498133
74.015 5.316768
74.020 5.235035
74.025 5.143763
74.030 5.496423
74.035 5.204118
74.040 4.801353
74.045 4.511521
74.050 4.511651
74.055 4.66644
74.060 4.485733
74.065 4.250309
74.070 4.509239
74.075 4.555981
74.080 4.392723
74.085 4.374178
74.090 4.406926
74.095 4.501024
74.100 4.612351
74.105 4.66493
74.110 5.235318
74.115 5.782091
74.120 5.85228
74.125 5.760288
74.130 5.681653
74.135 5.636298
74.140 5.577368
74.145 5.178171
74.150 4.7932
74.155 4.694231
74.160 4.956359
74.165 5.006397
74.170 5.064566
74.175 5.379947
74.180 5.651149
74.185 5.709369
74.190 5.847567
74.195 5.617739
74.200 5.728815
74.205 5.535133
74.210 5.310642
74.215 5.411953
74.220 5.637922
74.225 5.635852
74.230 5.92989
74.235 5.853629
74.240 5.858557
74.245 5.54351
74.250 5.294416
74.255 5.202791
74.260 4.974672
74.265 4.782303
74.270 4.934533
74.275 5.032924
74.280 4.965252
74.285 4.78441
74.290 4.639711
74.295 4.672391
74.300 4.640669
74.305 4.684203
74.310 4.864489
74.315 5.250623
74.320 5.518934
74.325 5.526744
74.330 5.441566
74.335 5.313834
74.340 5.083353
74.345 4.873315
74.350 4.907583
74.355 4.796793
74.360 4.791604
74.365 4.793845
74.370 4.651918
74.375 4.614583
74.380 4.782871
74.385 5.036073
74.390 5.235276
74.395 5.517297
74.400 5.348547
74.405 5.55501
74.410 5.650804
74.415 5.574679
74.420 5.318254
74.425 5.136903
74.430 5.257988
74.435 5.290046
74.440 5.058358
74.445 4.778466
74.450 4.788201
74.455 4.748763
74.460 4.861422
74.465 4.882942
74.470 5.204877
74.475 5.500772
74.480 5.297442
74.485 5.293993
74.490 5.286177
74.495 5.131341
74.500 5.115774
74.505 4.839671
74.510 4.834898
74.515 4.785603
74.520 5.152383
74.525 5.116902
74.530 4.881106
74.535 5.032751
74.540 5.218069
74.545 5.017695
74.550 4.855393
74.555 4.668011
74.560 4.927186
74.565 4.715307
74.570 4.44502
74.575 4.440558
74.580 4.891874
74.585 4.993809
74.590 4.940146
74.595 5.203109
74.600 5.507206
74.605 5.703121
74.610 5.83932
74.615 5.356692
74.620 5.419935
74.625 5.287096
74.630 5.134933
74.635 4.819064
74.640 4.63429
74.645 4.354789
74.650 4.55926
74.655 4.39463
74.660 4.355191
74.665 4.722729
74.670 5.057553
74.675 5.181911
74.680 5.292655
74.685 5.273915
74.690 5.155735
74.695 5.195522
74.700 4.630205
74.705 4.419129
74.710 4.426583
74.715 4.38314
74.720 4.305192
74.725 4.596063
74.730 4.435491
74.735 4.303634
74.740 4.257904
74.745 4.480968
74.750 4.580145
74.755 4.645462
74.760 4.309519
74.765 4.347616
74.770 4.50505
74.775 4.560589
74.780 4.26536
74.785 4.588295
74.790 4.492923
74.795 4.875656
74.800 4.954221
74.805 5.024271
74.810 5.078242
74.815 5.254449
74.820 5.086152
74.825 4.993319
74.830 4.6812
74.835 4.975324
74.840 4.974291
74.845 4.848466
74.850 4.515965
74.855 4.401187
74.860 4.480688
74.865 4.451302
74.870 4.233979
74.875 4.256811
74.880 4.537081
74.885 4.598194
74.890 4.724545
74.895 4.993108
74.900 4.970132
74.905 4.601088
74.910 4.632668
74.915 4.658201
74.920 4.366188
74.925 4.210657
74.930 3.871018
74.935 3.974624
74.940 3.995447
74.945 4.094096
74.950 4.180912
74.955 4.376526
74.960 4.450631
74.965 4.577754
74.970 4.712742
74.975 4.919924
74.980 4.712258
74.985 4.650737
74.990 4.605773
74.995 4.756047
75.000 4.88845
