!@!!GADDS PLOTSO FILE: Chi integration type
!@!!Title/SampleName: map-102
!@!!Comment: ?
!@!!User: Bruker Instrument Administrator
!@!!Site: University of Illinois Chicago
!@!!Frame: map-102_01_000.gfrm
!@!!Wavelengths    1.54184   1.54056   1.54439
!@!!Frame angles: 2Theta: 65.000 Omega: 50.000 Phi: 0.000 Chi: 90.000
!@!!Integration range: 2Theta: 55.000 to 75.000  Gamma: -105.000 to -75.000
!@!!Integration method: bin normalized
!@!N
!@!SS
!@!M
!@!L 0.0 0.0 0.0 0.0
!@!XDegrees
!@!YCounts
55.000 5.061404
55.005 5.16533
55.010 5.297145
55.015 5.348761
55.020 5.537573
55.025 5.633325
55.030 5.74073
55.035 5.577873
55.040 5.288459
55.045 5.058221
55.050 5.104148
55.055 5.035631
55.060 5.245194
55.065 4.940751
55.070 4.920067
55.075 5.049178
55.080 5.052033
55.085 5.017314
55.090 4.795541
55.095 4.660576
55.100 5.252146
55.105 5.381548
55.110 5.463514
55.115 5.709748
55.120 5.807893
55.125 5.60413
55.130 5.273564
55.135 5.138787
55.140 5.092659
55.145 4.971628
55.150 4.805238
55.155 4.87518
55.160 5.39446
55.165 5.624685
55.170 5.247376
55.175 5.290655
55.180 5.034102
55.185 4.649855
55.190 4.325939
55.195 4.057974
55.200 4.203765
55.205 4.180207
55.210 3.929277
55.215 4.047188
55.220 4.35086
55.225 4.538468
55.230 4.125407
55.235 4.009374
55.240 4.286172
55.245 4.190197
55.250 4.493337
55.255 4.599396
55.260 4.525905
55.265 4.79362
55.270 4.806816
55.275 4.795905
55.280 4.732306
55.285 4.382168
55.290 4.291799
55.295 4.373777
55.300 4.290905
55.305 4.217891
55.310 4.104409
55.315 4.131714
55.320 4.16333
55.325 4.223469
55.330 4.379226
55.335 4.377517
55.340 4.418205
55.345 4.423489
55.350 4.362549
55.355 4.34511
55.360 4.065337
55.365 4.279042
55.370 4.545437
55.375 4.474051
55.380 4.459976
55.385 4.499703
55.390 4.627664
55.395 4.800311
55.400 4.417886
55.405 4.384524
55.410 4.965365
55.415 5.292759
55.420 5.04591
55.425 4.721669
55.430 4.590009
55.435 4.496989
55.440 4.274167
55.445 3.601604
55.450 3.549801
55.455 3.883626
55.460 4.135468
55.465 4.390324
55.470 4.888104
55.475 5.16646
55.480 5.418428
55.485 5.529083
55.490 5.558148
55.495 5.533972
55.500 5.332842
55.505 5.236209
55.510 5.033001
55.515 4.841001
55.520 4.799069
55.525 4.71836
55.530 4.415702
55.535 4.283982
55.540 4.080908
55.545 4.406655
55.550 4.497815
55.555 4.675479
55.560 4.995987
55.565 5.223286
55.570 5.143969
55.575 5.220788
55.580 4.909449
55.585 4.629929
55.590 4.340527
55.595 4.215042
55.600 4.325734
55.605 4.407608
55.610 4.508281
55.615 4.661172
55.620 4.867795
55.625 4.810844
55.630 4.681363
55.635 4.480509
55.640 4.594376
55.645 4.693178
55.650 4.902906
55.655 5.150196
55.660 5.347427
55.665 5.235713
55.670 5.645904
55.675 5.45135
55.680 5.188394
55.685 5.24295
55.690 4.833154
55.695 4.909526
55.700 5.318654
55.705 5.177837
55.710 5.610369
55.715 5.661626
55.720 5.679561
55.725 5.952866
55.730 5.609136
55.735 5.43882
55.740 5.118741
55.745 5.110464
55.750 5.277114
55.755 5.193707
55.760 5.555203
55.765 6.164958
55.770 6.331959
55.775 6.638029
55.780 6.532599
55.785 6.549997
55.790 6.433188
55.795 5.818879
55.800 5.353425
55.805 5.056121
55.810 4.575867
55.815 4.119073
55.820 3.971335
55.825 4.062276
55.830 4.308319
55.835 4.235548
55.840 4.312581
55.845 4.739598
55.850 4.798914
55.855 4.802038
55.860 4.87253
55.865 4.731758
55.870 4.575708
55.875 4.251394
55.880 3.833807
55.885 4.06433
55.890 4.215854
55.895 4.261438
55.900 4.568833
55.905 4.754143
55.910 4.924453
55.915 4.968583
55.920 5.081416
55.925 4.949501
55.930 4.731603
55.935 4.535753
55.940 4.317647
55.945 4.442953
55.950 4.202836
55.955 3.966455
55.960 4.260407
55.965 4.220847
55.970 4.236357
55.975 4.665332
55.980 4.903924
55.985 5.228463
55.990 5.29495
55.995 4.922224
56.000 5.136361
56.005 5.53779
56.010 5.655114
56.015 5.489839
56.020 5.507073
56.025 5.578483
56.030 5.798928
56.035 5.4711
56.040 5.168083
56.045 4.877741
56.050 5.044818
56.055 4.793625
56.060 4.747607
56.065 4.683332
56.070 4.897593
56.075 5.14603
56.080 5.218514
56.085 5.010281
56.090 4.943505
56.095 5.00728
56.100 5.035534
56.105 4.832932
56.110 4.566488
56.115 4.561388
56.120 4.844498
56.125 5.314507
56.130 5.291327
56.135 5.24502
56.140 4.94359
56.145 4.883742
56.150 5.328679
56.155 5.280612
56.160 5.412139
56.165 5.452607
56.170 5.643299
56.175 5.591937
56.180 5.388173
56.185 5.057228
56.190 5.074439
56.195 4.608903
56.200 4.579278
56.205 4.501074
56.210 4.594617
56.215 4.850493
56.220 4.654609
56.225 4.64327
56.230 4.987868
56.235 5.157927
56.240 5.21082
56.245 5.086688
56.250 5.172896
56.255 5.666996
56.260 5.305525
56.265 5.189355
56.270 5.319989
56.275 5.390011
56.280 5.542268
56.285 5.127969
56.290 5.026121
56.295 5.278568
56.300 5.114808
56.305 5.138152
56.310 5.080637
56.315 4.936608
56.320 4.945684
56.325 4.742124
56.330 4.674855
56.335 4.709489
56.340 4.774585
56.345 4.876253
56.350 5.30784
56.355 5.336936
56.360 5.316103
56.365 5.245629
56.370 5.020811
56.375 4.943586
56.380 5.211339
56.385 4.926859
56.390 5.161087
56.395 5.536366
56.400 5.594206
56.405 5.524467
56.410 5.196292
56.415 4.87754
56.420 4.71169
56.425 4.522783
56.430 4.215062
56.435 4.408724
56.440 4.55747
56.445 4.531124
56.450 4.51205
56.455 4.426527
56.460 4.540358
56.465 4.606458
56.470 4.706019
56.475 5.154737
56.480 5.340801
56.485 5.593245
56.490 5.546896
56.495 5.662062
56.500 5.43694
56.505 5.142115
56.510 5.326261
56.515 5.473173
56.520 5.722341
56.525 5.63502
56.530 5.88396
56.535 6.14265
56.540 6.019978
56.545 5.582211
56.550 5.363041
56.555 5.467199
56.560 5.307091
56.565 4.896922
56.570 4.824044
56.575 4.893352
56.580 4.893675
56.585 4.906711
56.590 4.612006
56.595 4.838097
56.600 5.08673
56.605 5.043537
56.610 5.222432
56.615 5.409831
56.620 5.300183
56.625 5.897144
56.630 5.871691
56.635 5.921383
56.640 5.691335
56.645 5.572233
56.650 5.439689
56.655 5.402035
56.660 4.927482
56.665 4.992256
56.670 4.868124
56.675 5.157853
56.680 5.111732
56.685 5.149367
56.690 4.94521
56.695 4.834841
56.700 4.766051
56.705 4.876825
56.710 4.737597
56.715 4.408736
56.720 4.470743
56.725 4.963019
56.730 5.027307
56.735 4.979663
56.740 4.704031
56.745 4.932227
56.750 5.164833
56.755 5.078244
56.760 4.783368
56.765 4.885887
56.770 5.222255
56.775 5.333329
56.780 5.256134
56.785 5.116984
56.790 5.316717
56.795 5.323082
56.800 4.958479
56.805 4.812182
56.810 5.023895
56.815 5.099097
56.820 5.049344
56.825 5.222666
56.830 5.519528
56.835 5.672885
56.840 5.829959
56.845 5.324232
56.850 5.440956
56.855 5.223352
56.860 4.964561
56.865 4.869041
56.870 4.835065
56.875 4.622845
56.880 4.717208
56.885 4.600832
56.890 4.633032
56.895 4.435184
56.900 4.299066
56.905 4.156929
56.910 4.309247
56.915 4.304842
56.920 4.460967
56.925 4.880987
56.930 5.149097
56.935 5.349854
56.940 5.629079
56.945 5.597758
56.950 5.599794
56.955 5.42835
56.960 5.112633
56.965 5.399614
56.970 5.253877
56.975 5.241955
56.980 5.558561
56.985 5.491469
56.990 5.901232
56.995 5.897798
57.000 5.446323
57.005 5.399488
57.010 5.301917
57.015 5.02269
57.020 4.937251
57.025 4.51993
57.030 4.250201
57.035 4.66754
57.040 4.887125
57.045 4.924389
57.050 5.261959
57.055 5.603214
57.060 5.873838
57.065 6.372786
57.070 6.272366
57.075 6.224545
57.080 6.047284
57.085 5.784546
57.090 5.570578
57.095 5.4594
57.100 4.856557
57.105 4.609583
57.110 4.648021
57.115 4.558871
57.120 4.605781
57.125 4.379766
57.130 4.355103
57.135 4.429216
57.140 4.666876
57.145 4.553359
57.150 4.866531
57.155 4.807944
57.160 4.608519
57.165 4.743558
57.170 4.717386
57.175 4.760129
57.180 4.554085
57.185 4.347093
57.190 4.690378
57.195 5.012827
57.200 5.023998
57.205 5.181003
57.210 5.164848
57.215 5.406046
57.220 5.199541
57.225 4.753379
57.230 4.952594
57.235 5.374505
57.240 5.639892
57.245 5.619352
57.250 5.433813
57.255 5.76566
57.260 5.959475
57.265 5.820584
57.270 5.37157
57.275 5.201412
57.280 5.363984
57.285 5.461858
57.290 5.484065
57.295 5.284061
57.300 5.289744
57.305 5.278183
57.310 5.385357
57.315 5.267592
57.320 5.302925
57.325 5.456134
57.330 5.354854
57.335 5.218617
57.340 5.365636
57.345 5.274472
57.350 5.237079
57.355 5.194369
57.360 4.949243
57.365 5.113072
57.370 5.021807
57.375 4.578728
57.380 4.570708
57.385 4.625567
57.390 4.625875
57.395 4.821495
57.400 4.893552
57.405 5.163133
57.410 5.516309
57.415 5.36256
57.420 5.328981
57.425 5.338329
57.430 5.443223
57.435 5.278134
57.440 5.134404
57.445 4.904764
57.450 4.878078
57.455 4.737834
57.460 4.388192
57.465 4.472016
57.470 4.383694
57.475 4.443911
57.480 4.699195
57.485 4.944319
57.490 5.207913
57.495 5.249875
57.500 5.10169
57.505 5.155241
57.510 5.053376
57.515 4.837939
57.520 5.064859
57.525 5.216806
57.530 5.416859
57.535 5.857203
57.540 5.883558
57.545 5.752535
57.550 5.585917
57.555 5.531946
57.560 5.409596
57.565 5.068724
57.570 4.730237
57.575 4.965615
57.580 5.162109
57.585 5.361458
57.590 5.157072
57.595 5.315354
57.600 5.655948
57.605 5.615481
57.610 5.668601
57.615 5.839557
57.620 5.861004
57.625 5.817133
57.630 5.917672
57.635 5.891142
57.640 5.853953
57.645 5.755115
57.650 5.667989
57.655 5.498426
57.660 5.738674
57.665 5.581744
57.670 5.552595
57.675 5.831223
57.680 5.727275
57.685 5.889021
57.690 5.929942
57.695 5.532403
57.700 5.4403
57.705 5.177055
57.710 4.982164
57.715 5.309155
57.720 5.395893
57.725 5.606985
57.730 5.763309
57.735 6.382045
57.740 6.819131
57.745 6.677629
57.750 6.142711
57.755 5.884842
57.760 5.670569
57.765 5.570738
57.770 5.372234
57.775 5.082901
57.780 5.564945
57.785 6.198632
57.790 6.337618
57.795 6.429729
57.800 6.5375
57.805 6.601263
57.810 7.010265
57.815 7.019233
57.820 6.721106
57.825 6.877435
57.830 6.89706
57.835 7.084893
57.840 7.067896
57.845 6.733157
57.850 6.705752
57.855 6.929989
57.860 7.274868
57.865 7.127556
57.870 7.662826
57.875 7.879633
57.880 7.653553
57.885 7.878806
57.890 7.84256
57.895 7.836005
57.900 8.467006
57.905 8.315793
57.910 8.472648
57.915 8.583332
57.920 8.50231
57.925 8.501424
57.930 8.280226
57.935 8.050852
57.940 8.365298
57.945 9.199046
57.950 9.78662
57.955 9.846263
57.960 10.334586
57.965 10.644004
57.970 11.012104
57.975 11.054683
57.980 10.930996
57.985 11.342919
57.990 11.613732
57.995 11.719411
58.000 11.944864
58.005 12.348753
58.010 13.084463
58.015 13.113506
58.020 13.170927
58.025 13.403959
58.030 13.726819
58.035 13.900945
58.040 13.973086
58.045 13.839825
58.050 14.275759
58.055 14.582566
58.060 14.946968
58.065 14.972739
58.070 15.144031
58.075 15.318327
58.080 15.553511
58.085 15.66815
58.090 15.725557
58.095 15.326346
58.100 15.21285
58.105 15.067453
58.110 14.448553
58.115 14.501155
58.120 14.47472
58.125 15.189087
58.130 15.58442
58.135 15.975984
58.140 16.166397
58.145 16.704845
58.150 16.562441
58.155 16.485256
58.160 15.956298
58.165 16.762934
58.170 16.884634
58.175 16.720247
58.180 16.775826
58.185 16.814285
58.190 16.371328
58.195 16.285238
58.200 15.176312
58.205 14.867496
58.210 14.829775
58.215 14.319279
58.220 14.545763
58.225 14.667383
58.230 14.284746
58.235 14.406301
58.240 13.913
58.245 13.387028
58.250 13.387063
58.255 13.001809
58.260 12.74824
58.265 12.702711
58.270 12.52143
58.275 13.078443
58.280 12.928191
58.285 12.276357
58.290 11.861373
58.295 11.625816
58.300 11.210046
58.305 10.564909
58.310 10.249827
58.315 10.296381
58.320 10.425523
58.325 10.488058
58.330 10.364472
58.335 10.5468
58.340 10.547094
58.345 10.34477
58.350 10.79229
58.355 10.472
58.360 9.852289
58.365 9.796286
58.370 9.647484
58.375 9.489902
58.380 9.262983
58.385 8.602534
58.390 8.889554
58.395 8.948749
58.400 8.607618
58.405 8.351399
58.410 7.791424
58.415 7.328079
58.420 7.136857
58.425 6.749082
58.430 6.868869
58.435 6.804854
58.440 7.140826
58.445 7.587317
58.450 7.861364
58.455 7.782692
58.460 7.846303
58.465 7.715622
58.470 7.649259
58.475 7.503278
58.480 7.427027
58.485 7.025811
58.490 6.691387
58.495 6.528738
58.500 6.380913
58.505 6.347221
58.510 6.329493
58.515 6.109698
58.520 6.192451
58.525 6.120924
58.530 6.343143
58.535 6.352537
58.540 6.3049
58.545 6.244803
58.550 6.270912
58.555 6.290601
58.560 5.898016
58.565 5.297297
58.570 5.088979
58.575 4.85349
58.580 4.743279
58.585 4.784141
58.590 4.874612
58.595 5.136275
58.600 5.300374
58.605 5.595222
58.610 5.730675
58.615 5.815249
58.620 5.578838
58.625 5.467394
58.630 5.255678
58.635 5.513864
58.640 5.735566
58.645 5.55862
58.650 5.499839
58.655 5.829773
58.660 6.13693
58.665 6.477467
58.670 6.076607
58.675 5.768057
58.680 6.081442
58.685 6.12271
58.690 6.506919
58.695 6.63858
58.700 6.685982
58.705 6.61521
58.710 6.515186
58.715 6.492006
58.720 6.251848
58.725 5.918196
58.730 5.685893
58.735 5.509726
58.740 5.61661
58.745 5.650328
58.750 6.057389
58.755 6.275244
58.760 6.048192
58.765 5.992731
58.770 5.939162
58.775 6.2425
58.780 6.191347
58.785 5.86837
58.790 5.75736
58.795 6.008941
58.800 6.071419
58.805 6.050996
58.810 5.58362
58.815 5.318841
58.820 5.35732
58.825 5.197962
58.830 5.020324
58.835 5.013504
58.840 4.880835
58.845 4.957307
58.850 5.191684
58.855 5.140332
58.860 5.152919
58.865 5.145197
58.870 5.241616
58.875 5.540944
58.880 5.885427
58.885 5.508014
58.890 5.34407
58.895 5.276989
58.900 5.438474
58.905 5.737336
58.910 5.703886
58.915 5.590104
58.920 5.663238
58.925 5.847109
58.930 5.825593
58.935 5.174856
58.940 4.760965
58.945 4.929145
58.950 4.925422
58.955 5.13496
58.960 5.182069
58.965 5.205838
58.970 5.645536
58.975 5.653888
58.980 5.818129
58.985 5.753599
58.990 5.580591
58.995 5.661518
59.000 5.693779
59.005 5.494957
59.010 5.226229
59.015 4.904695
59.020 4.929678
59.025 4.928645
59.030 4.560642
59.035 4.381117
59.040 4.741951
59.045 4.948426
59.050 5.189403
59.055 5.199117
59.060 5.100986
59.065 5.471503
59.070 5.686918
59.075 5.590714
59.080 5.650839
59.085 5.519094
59.090 5.443262
59.095 5.804526
59.100 5.593615
59.105 5.587976
59.110 5.651856
59.115 5.637757
59.120 5.74357
59.125 5.918495
59.130 5.76386
59.135 5.71549
59.140 5.212193
59.145 5.2521
59.150 4.97476
59.155 5.116087
59.160 5.025333
59.165 4.878528
59.170 5.141033
59.175 5.223456
59.180 4.902472
59.185 4.818473
59.190 4.519513
59.195 4.461615
59.200 4.87743
59.205 4.903657
59.210 4.968742
59.215 4.969838
59.220 4.828461
59.225 5.139575
59.230 5.367617
59.235 5.143232
59.240 4.862148
59.245 4.681674
59.250 4.594231
59.255 4.43715
59.260 4.322229
59.265 4.23205
59.270 4.161117
59.275 4.238795
59.280 4.477742
59.285 4.939307
59.290 5.174814
59.295 4.894289
59.300 4.956682
59.305 5.104723
59.310 5.131283
59.315 5.486052
59.320 5.319531
59.325 5.500094
59.330 5.813888
59.335 5.663934
59.340 5.451792
59.345 5.374248
59.350 5.019985
59.355 5.230132
59.360 5.195433
59.365 4.960472
59.370 5.26059
59.375 5.416383
59.380 5.753771
59.385 5.836564
59.390 5.597414
59.395 5.28186
59.400 5.219377
59.405 5.053543
59.410 4.821939
59.415 4.581076
59.420 4.648466
59.425 4.672173
59.430 4.795954
59.435 4.95053
59.440 4.998833
59.445 5.13945
59.450 5.098995
59.455 5.015824
59.460 5.336365
59.465 5.502063
59.470 5.567679
59.475 5.872931
59.480 5.911333
59.485 5.958654
59.490 5.759739
59.495 5.637063
59.500 5.480601
59.505 5.230865
59.510 4.923081
59.515 4.722822
59.520 4.905947
59.525 5.221708
59.530 5.088656
59.535 4.93399
59.540 4.958896
59.545 4.985147
59.550 4.782536
59.555 4.068834
59.560 3.661833
59.565 3.976908
59.570 4.191475
59.575 4.383432
59.580 4.514681
59.585 4.689556
59.590 5.159104
59.595 5.441184
59.600 5.572053
59.605 5.765938
59.610 5.712824
59.615 5.811404
59.620 5.890338
59.625 6.036924
59.630 5.973471
59.635 6.178602
59.640 5.909695
59.645 6.115513
59.650 6.213106
59.655 6.158847
59.660 6.242473
59.665 5.906472
59.670 5.679556
59.675 5.481284
59.680 5.221466
59.685 5.255514
59.690 5.34209
59.695 5.521624
59.700 5.561527
59.705 5.426335
59.710 5.580542
59.715 5.555402
59.720 5.240733
59.725 5.235588
59.730 4.982665
59.735 5.231808
59.740 5.472478
59.745 5.291024
59.750 5.496619
59.755 5.776324
59.760 5.916694
59.765 5.874068
59.770 5.554508
59.775 5.279087
59.780 5.657312
59.785 5.560068
59.790 5.518929
59.795 5.684426
59.800 6.258234
59.805 6.325099
59.810 6.445642
59.815 6.101369
59.820 6.278087
59.825 6.338975
59.830 5.928953
59.835 5.446542
59.840 5.303799
59.845 5.423423
59.850 5.630418
59.855 5.464761
59.860 5.695824
59.865 5.684318
59.870 6.005051
59.875 6.094257
59.880 5.999617
59.885 5.892181
59.890 5.754702
59.895 5.426438
59.900 5.460107
59.905 4.969339
59.910 5.021674
59.915 5.171318
59.920 5.16682
59.925 5.224255
59.930 5.437606
59.935 5.507914
59.940 5.866109
59.945 5.754549
59.950 5.507805
59.955 5.473524
59.960 5.481321
59.965 5.161259
59.970 4.897622
59.975 4.594458
59.980 4.454985
59.985 4.538519
59.990 4.742099
59.995 4.639804
60.000 4.884256
60.005 5.26027
60.010 5.441506
60.015 5.526026
60.020 5.502296
60.025 5.345651
60.030 5.259059
60.035 4.968324
60.040 4.999009
60.045 5.026466
60.050 5.295418
60.055 5.33147
60.060 5.221977
60.065 5.48208
60.070 5.886657
60.075 5.789073
60.080 5.946562
60.085 5.993505
60.090 5.900594
60.095 6.183448
60.100 5.982666
60.105 5.793625
60.110 5.799866
60.115 5.691659
60.120 5.133882
60.125 5.146501
60.130 5.108475
60.135 5.256117
60.140 5.430408
60.145 5.644882
60.150 6.072652
60.155 6.592454
60.160 6.432609
60.165 6.356622
60.170 6.187024
60.175 6.108097
60.180 5.648463
60.185 5.328248
60.190 5.244761
60.195 5.152507
60.200 5.123275
60.205 5.134552
60.210 4.766925
60.215 4.832051
60.220 4.938762
60.225 5.159475
60.230 5.335181
60.235 5.062294
60.240 5.156206
60.245 5.670939
60.250 5.635799
60.255 5.058429
60.260 4.799674
60.265 4.984436
60.270 5.11465
60.275 4.781086
60.280 4.659517
60.285 4.888241
60.290 5.177479
60.295 5.35089
60.300 5.365296
60.305 5.713303
60.310 5.901887
60.315 5.640397
60.320 5.354791
60.325 5.508116
60.330 5.257847
60.335 5.068199
60.340 4.725308
60.345 4.837497
60.350 5.180968
60.355 5.379613
60.360 5.506955
60.365 5.71615
60.370 5.790242
60.375 6.115391
60.380 6.171597
60.385 6.201252
60.390 6.369265
60.395 6.294632
60.400 6.367849
60.405 6.377926
60.410 5.973379
60.415 5.774993
60.420 5.62457
60.425 5.263569
60.430 5.189858
60.435 5.241894
60.440 4.995664
60.445 4.949897
60.450 4.978255
60.455 5.035338
60.460 5.297552
60.465 5.231143
60.470 5.397292
60.475 5.888792
60.480 5.895397
60.485 5.89561
60.490 5.584232
60.495 5.255087
60.500 5.080429
60.505 4.749576
60.510 4.309633
60.515 4.165326
60.520 4.313947
60.525 4.570532
60.530 4.677908
60.535 4.696634
60.540 4.659563
60.545 4.853795
60.550 4.952814
60.555 4.838602
60.560 4.821066
60.565 4.902534
60.570 5.323703
60.575 5.315159
60.580 5.302518
60.585 5.197789
60.590 5.075488
60.595 4.939215
60.600 4.683932
60.605 4.296774
60.610 4.13726
60.615 4.056094
60.620 4.179074
60.625 4.817067
60.630 5.016921
60.635 4.918304
60.640 5.113495
60.645 5.365612
60.650 5.614981
60.655 5.669454
60.660 5.450561
60.665 5.686653
60.670 6.044973
60.675 6.013125
60.680 6.23729
60.685 6.309164
60.690 6.292024
60.695 6.222622
60.700 5.931226
60.705 5.75283
60.710 5.607585
60.715 5.320534
60.720 4.9982
60.725 4.909855
60.730 4.388263
60.735 4.346369
60.740 4.483897
60.745 4.623755
60.750 4.697119
60.755 4.793446
60.760 5.03245
60.765 5.411592
60.770 5.610455
60.775 5.58109
60.780 5.614105
60.785 5.79517
60.790 5.66615
60.795 5.362624
60.800 5.030872
60.805 5.02463
60.810 4.875761
60.815 4.840537
60.820 4.655123
60.825 4.793242
60.830 4.683325
60.835 4.758964
60.840 4.614884
60.845 4.702674
60.850 4.593137
60.855 4.750405
60.860 4.560857
60.865 4.738712
60.870 4.799341
60.875 4.670477
60.880 4.499321
60.885 4.684996
60.890 4.808325
60.895 4.585589
60.900 4.597298
60.905 4.639992
60.910 4.933184
60.915 5.147731
60.920 4.931555
60.925 5.057042
60.930 5.533451
60.935 5.550021
60.940 5.645113
60.945 5.694182
60.950 5.552583
60.955 5.4256
60.960 5.203837
60.965 5.057828
60.970 5.175995
60.975 5.065195
60.980 5.027562
60.985 5.234372
60.990 5.539467
60.995 5.787439
61.000 5.762541
61.005 5.589592
61.010 5.903105
61.015 5.716308
61.020 5.684717
61.025 5.421971
61.030 5.219909
61.035 5.49395
61.040 5.68412
61.045 5.535729
61.050 5.574443
61.055 5.378584
61.060 5.437519
61.065 5.480541
61.070 5.201083
61.075 5.407272
61.080 5.53372
61.085 5.620249
61.090 5.718665
61.095 5.933242
61.100 6.113728
61.105 6.008103
61.110 5.680217
61.115 5.478844
61.120 5.380142
61.125 5.137758
61.130 4.977203
61.135 4.947443
61.140 5.092749
61.145 4.90721
61.150 4.991891
61.155 5.271092
61.160 5.461126
61.165 5.410621
61.170 5.329652
61.175 5.483919
61.180 5.938913
61.185 6.096513
61.190 6.048782
61.195 6.377628
61.200 6.4125
61.205 6.157548
61.210 5.831818
61.215 5.188596
61.220 4.930457
61.225 4.788496
61.230 4.141891
61.235 4.052968
61.240 4.296261
61.245 4.38872
61.250 4.541539
61.255 4.317404
61.260 4.522501
61.265 4.728881
61.270 4.902892
61.275 4.864339
61.280 4.950284
61.285 5.053478
61.290 5.327458
61.295 5.255127
61.300 5.329234
61.305 5.295013
61.310 5.577862
61.315 5.857675
61.320 5.742774
61.325 5.726103
61.330 5.88162
61.335 5.926553
61.340 5.952021
61.345 5.834393
61.350 5.479088
61.355 5.408692
61.360 5.099773
61.365 4.991251
61.370 5.038285
61.375 4.967676
61.380 4.786885
61.385 5.046102
61.390 5.630804
61.395 6.104823
61.400 5.995966
61.405 5.922312
61.410 5.763046
61.415 5.897193
61.420 5.824436
61.425 5.51777
61.430 5.396651
61.435 5.375946
61.440 5.395112
61.445 5.342193
61.450 5.129877
61.455 5.122262
61.460 5.362988
61.465 5.555279
61.470 5.49988
61.475 5.557146
61.480 5.650513
61.485 5.711426
61.490 5.809656
61.495 5.464654
61.500 5.267981
61.505 5.104818
61.510 5.322016
61.515 5.348129
61.520 5.128403
61.525 4.950796
61.530 5.097597
61.535 5.159187
61.540 5.149381
61.545 4.785728
61.550 4.946119
61.555 5.03503
61.560 4.938361
61.565 5.061445
61.570 5.345196
61.575 5.112651
61.580 5.09481
61.585 5.045947
61.590 4.898642
61.595 4.875959
61.600 4.747172
61.605 4.672441
61.610 4.894175
61.615 4.655906
61.620 4.504455
61.625 4.733958
61.630 4.847983
61.635 4.683797
61.640 4.693807
61.645 4.775383
61.650 5.082818
61.655 4.958424
61.660 4.93989
61.665 5.249684
61.670 5.400785
61.675 5.509069
61.680 5.491072
61.685 5.678988
61.690 5.858575
61.695 5.783846
61.700 5.043218
61.705 5.085227
61.710 4.98359
61.715 4.968089
61.720 4.895291
61.725 4.970224
61.730 4.958107
61.735 5.476977
61.740 5.436485
61.745 5.424255
61.750 5.530907
61.755 5.38488
61.760 5.430623
61.765 5.579219
61.770 5.560289
61.775 5.599206
61.780 5.702166
61.785 5.330615
61.790 5.559334
61.795 5.509112
61.800 5.453298
61.805 5.642471
61.810 5.596334
61.815 5.515341
61.820 5.834338
61.825 5.647593
61.830 5.584498
61.835 5.387398
61.840 4.787135
61.845 4.849718
61.850 4.682028
61.855 4.714382
61.860 4.877465
61.865 5.125734
61.870 5.442848
61.875 5.751779
61.880 5.611533
61.885 5.637754
61.890 5.494568
61.895 5.504322
61.900 5.449714
61.905 5.332565
61.910 5.253812
61.915 5.373423
61.920 5.360036
61.925 5.447904
61.930 5.428094
61.935 5.15133
61.940 4.941053
61.945 4.790918
61.950 4.92599
61.955 5.054754
61.960 4.874617
61.965 4.88689
61.970 4.931873
61.975 4.979391
61.980 5.130038
61.985 4.937493
61.990 4.917888
61.995 5.153877
62.000 5.246014
62.005 5.392721
62.010 5.35215
62.015 4.972563
62.020 4.65945
62.025 4.54301
62.030 4.391454
62.035 4.383179
62.040 4.567458
62.045 4.947636
62.050 5.234169
62.055 5.31861
62.060 5.43388
62.065 5.594102
62.070 5.605804
62.075 5.572286
62.080 5.229328
62.085 5.384433
62.090 5.584724
62.095 5.536606
62.100 5.45069
62.105 5.30153
62.110 5.261879
62.115 5.495926
62.120 5.466017
62.125 5.562695
62.130 5.568038
62.135 5.442054
62.140 5.497779
62.145 5.469405
62.150 5.344797
62.155 5.073813
62.160 4.86989
62.165 4.865548
62.170 4.807275
62.175 4.728754
62.180 4.626493
62.185 4.735532
62.190 4.792328
62.195 5.048891
62.200 5.075387
62.205 5.18425
62.210 5.151454
62.215 5.345144
62.220 5.311429
62.225 5.336285
62.230 5.226158
62.235 5.06351
62.240 4.978203
62.245 4.945211
62.250 4.930337
62.255 4.957758
62.260 5.403149
62.265 5.544088
62.270 5.656135
62.275 5.973277
62.280 6.044897
62.285 5.963439
62.290 5.957682
62.295 5.617997
62.300 5.333122
62.305 5.408058
62.310 5.24454
62.315 5.046329
62.320 5.039774
62.325 5.338437
62.330 5.488586
62.335 5.695356
62.340 5.511515
62.345 5.570159
62.350 5.903203
62.355 6.248195
62.360 5.87086
62.365 5.507499
62.370 5.501571
62.375 5.527789
62.380 5.481081
62.385 5.039897
62.390 4.62212
62.395 5.002866
62.400 5.085662
62.405 5.192717
62.410 5.236007
62.415 5.537849
62.420 5.759525
62.425 5.757845
62.430 5.606482
62.435 5.737285
62.440 5.772706
62.445 5.835748
62.450 5.79539
62.455 5.818884
62.460 5.87538
62.465 6.232443
62.470 6.286447
62.475 6.63141
62.480 6.623324
62.485 6.562897
62.490 6.519295
62.495 6.313644
62.500 5.922985
62.505 6.109135
62.510 5.725605
62.515 5.865958
62.520 5.81802
62.525 6.010804
62.530 6.34513
62.535 6.745219
62.540 6.636178
62.545 6.624954
62.550 6.233106
62.555 6.150733
62.560 5.871143
62.565 5.747849
62.570 4.992914
62.575 4.999138
62.580 5.211441
62.585 5.238821
62.590 5.476668
62.595 5.52783
62.600 5.453002
62.605 5.496256
62.610 5.138034
62.615 5.219329
62.620 5.246274
62.625 4.934009
62.630 4.932875
62.635 5.041087
62.640 5.073896
62.645 5.170323
62.650 4.640928
62.655 4.750111
62.660 5.01442
62.665 4.99695
62.670 5.024204
62.675 5.261333
62.680 5.647301
62.685 6.074955
62.690 5.93493
62.695 6.137916
62.700 6.335494
62.705 6.459054
62.710 6.594979
62.715 6.214422
62.720 6.079039
62.725 6.137713
62.730 5.840221
62.735 5.999218
62.740 6.006113
62.745 5.765585
62.750 5.777555
62.755 6.014648
62.760 6.127388
62.765 6.057496
62.770 5.490202
62.775 5.313761
62.780 5.530586
62.785 5.621552
62.790 5.57834
62.795 5.632962
62.800 5.739072
62.805 5.828244
62.810 5.946447
62.815 6.03922
62.820 6.147774
62.825 6.309054
62.830 6.002183
62.835 5.978208
62.840 6.232094
62.845 6.045181
62.850 5.788167
62.855 5.60476
62.860 5.405524
62.865 5.398496
62.870 5.525924
62.875 5.427901
62.880 5.467782
62.885 6.15027
62.890 6.408141
62.895 6.479192
62.900 6.746404
62.905 6.780659
62.910 6.76983
62.915 6.299727
62.920 5.639303
62.925 5.595401
62.930 5.688453
62.935 5.762676
62.940 5.391228
62.945 5.041103
62.950 5.654501
62.955 5.79937
62.960 5.569698
62.965 5.588418
62.970 5.436202
62.975 5.71729
62.980 6.19703
62.985 6.041536
62.990 5.831892
62.995 5.824386
63.000 5.908787
63.005 6.0441
63.010 6.282591
63.015 6.400624
63.020 6.572048
63.025 6.820763
63.030 6.782016
63.035 6.415153
63.040 6.51091
63.045 6.490862
63.050 6.263251
63.055 6.047633
63.060 5.941687
63.065 5.704451
63.070 5.558362
63.075 5.293528
63.080 5.491164
63.085 5.404849
63.090 5.044252
63.095 4.842272
63.100 5.034107
63.105 5.058392
63.110 5.004953
63.115 4.619383
63.120 4.661112
63.125 4.809088
63.130 4.725513
63.135 4.71558
63.140 4.930029
63.145 5.351674
63.150 5.536611
63.155 5.339022
63.160 5.502157
63.165 6.172832
63.170 6.350498
63.175 6.24007
63.180 6.089823
63.185 6.171144
63.190 6.555563
63.195 6.774011
63.200 6.367064
63.205 6.464031
63.210 6.457485
63.215 6.420665
63.220 6.499326
63.225 6.375769
63.230 6.251959
63.235 6.253371
63.240 6.205855
63.245 6.23425
63.250 6.258824
63.255 6.475138
63.260 6.503496
63.265 6.708765
63.270 6.896518
63.275 6.98835
63.280 6.742607
63.285 6.835337
63.290 6.726248
63.295 6.975203
63.300 6.844687
63.305 6.716379
63.310 7.013497
63.315 7.124235
63.320 6.95729
63.325 6.586727
63.330 6.2493
63.335 6.000392
63.340 6.050474
63.345 5.898414
63.350 6.004973
63.355 6.014919
63.360 6.187645
63.365 6.283168
63.370 6.288763
63.375 6.031879
63.380 5.511843
63.385 5.272188
63.390 5.111508
63.395 5.199846
63.400 4.992654
63.405 5.450891
63.410 5.779014
63.415 6.305279
63.420 6.654639
63.425 6.858908
63.430 7.083476
63.435 7.343823
63.440 7.117258
63.445 7.223842
63.450 7.116025
63.455 6.866612
63.460 7.074825
63.465 7.157325
63.470 7.170163
63.475 7.479396
63.480 7.687545
63.485 7.979945
63.490 8.032201
63.495 7.855526
63.500 7.973713
63.505 8.309655
63.510 8.433688
63.515 8.353042
63.520 8.248981
63.525 8.482179
63.530 8.86936
63.535 8.951298
63.540 8.801109
63.545 8.712272
63.550 8.547347
63.555 8.842641
63.560 8.764297
63.565 8.650042
63.570 8.334403
63.575 8.293413
63.580 8.401527
63.585 8.780772
63.590 8.456792
63.595 8.75091
63.600 9.184433
63.605 9.45112
63.610 9.894168
63.615 9.985332
63.620 9.900152
63.625 10.303843
63.630 10.309394
63.635 10.465281
63.640 11.33701
63.645 12.009053
63.650 12.854929
63.655 13.14698
63.660 13.833429
63.665 14.289577
63.670 14.803037
63.675 14.988026
63.680 15.161102
63.685 15.710414
63.690 16.727873
63.695 17.424276
63.700 17.840906
63.705 18.130898
63.710 18.910852
63.715 20.394234
63.720 20.614532
63.725 20.841248
63.730 21.427582
63.735 21.42359
63.740 21.546644
63.745 21.986158
63.750 22.688866
63.755 23.376934
63.760 24.090681
63.765 25.124262
63.770 26.666523
63.775 27.317316
63.780 27.242054
63.785 27.45211
63.790 28.506741
63.795 29.356041
63.800 28.990826
63.805 29.051647
63.810 30.251871
63.815 31.095503
63.820 32.007195
63.825 32.425522
63.830 32.213436
63.835 32.755726
63.840 32.929939
63.845 32.42543
63.850 32.306694
63.855 32.522949
63.860 32.6012
63.865 32.92606
63.870 33.047142
63.875 32.948929
63.880 32.746895
63.885 33.005936
63.890 33.112812
63.895 33.051987
63.900 32.633564
63.905 32.565903
63.910 31.606758
63.915 30.991543
63.920 29.814939
63.925 28.281172
63.930 27.327465
63.935 26.916271
63.940 27.013315
63.945 28.046526
63.950 28.255444
63.955 28.220894
63.960 27.691175
63.965 27.720911
63.970 27.16641
63.975 25.916162
63.980 24.802246
63.985 24.043966
63.990 23.143202
63.995 22.711121
64.000 22.445114
64.005 21.726547
64.010 21.341373
64.015 21.289597
64.020 21.278521
64.025 21.190659
64.030 20.280155
64.035 19.464323
64.040 19.10183
64.045 18.642494
64.050 18.335571
64.055 18.284031
64.060 18.176018
64.065 17.887877
64.070 17.465675
64.075 17.421194
64.080 17.188004
64.085 16.97908
64.090 16.465223
64.095 16.256538
64.100 16.596531
64.105 15.957526
64.110 15.680559
64.115 15.584809
64.120 14.79694
64.125 14.471776
64.130 13.74292
64.135 13.453747
64.140 13.067378
64.145 12.5811
64.150 11.749645
64.155 11.587461
64.160 11.361116
64.165 11.029543
64.170 10.080804
64.175 10.100401
64.180 10.127751
64.185 10.177258
64.190 10.421859
64.195 10.623196
64.200 10.307668
64.205 10.140834
64.210 10.126079
64.215 9.6665
64.220 9.314744
64.225 9.080575
64.230 9.19575
64.235 9.201145
64.240 9.229751
64.245 8.760348
64.250 8.78805
64.255 8.581045
64.260 8.465687
64.265 7.93751
64.270 8.036814
64.275 7.783934
64.280 7.866157
64.285 7.8932
64.290 7.798045
64.295 7.448623
64.300 7.452444
64.305 7.437579
64.310 7.518034
64.315 7.244008
64.320 7.053178
64.325 7.155458
64.330 7.197178
64.335 7.052597
64.340 6.452971
64.345 5.992582
64.350 5.925347
64.355 5.898191
64.360 5.868153
64.365 5.616226
64.370 5.401688
64.375 5.973285
64.380 6.283851
64.385 6.364294
64.390 6.549652
64.395 6.575521
64.400 6.820174
64.405 6.852283
64.410 6.773957
64.415 7.135684
64.420 7.368584
64.425 7.224253
64.430 7.236044
64.435 7.315676
64.440 7.658589
64.445 7.201443
64.450 6.82719
64.455 6.740003
64.460 6.773847
64.465 6.582851
64.470 6.400896
64.475 6.302723
64.480 6.524929
64.485 6.339418
64.490 6.2806
64.495 5.723768
64.500 5.663698
64.505 5.671201
64.510 5.660459
64.515 5.903414
64.520 5.682882
64.525 5.791113
64.530 6.095512
64.535 6.151187
64.540 5.985584
64.545 6.100832
64.550 5.986781
64.555 6.201749
64.560 6.168116
64.565 6.272106
64.570 6.410914
64.575 6.732694
64.580 6.52543
64.585 6.530965
64.590 6.690702
64.595 6.577743
64.600 6.640529
64.605 6.392549
64.610 6.227006
64.615 6.357391
64.620 6.521317
64.625 6.476405
64.630 6.755865
64.635 6.730162
64.640 6.643231
64.645 6.696199
64.650 6.365455
64.655 5.896135
64.660 5.913097
64.665 5.268366
64.670 5.229131
64.675 5.447284
64.680 5.320426
64.685 5.496772
64.690 5.556649
64.695 5.360806
64.700 5.77641
64.705 5.794982
64.710 5.960092
64.715 6.104484
64.720 6.109723
64.725 5.917871
64.730 5.787673
64.735 5.820543
64.740 5.846396
64.745 5.70498
64.750 5.733868
64.755 5.90996
64.760 6.149522
64.765 6.485579
64.770 6.391915
64.775 6.264319
64.780 6.110795
64.785 6.073165
64.790 5.832647
64.795 5.399329
64.800 5.170971
64.805 5.452623
64.810 5.440756
64.815 5.457872
64.820 5.313151
64.825 5.237722
64.830 5.490298
64.835 5.72226
64.840 5.406593
64.845 5.174578
64.850 5.543779
64.855 5.502304
64.860 5.484633
64.865 5.075673
64.870 4.37656
64.875 4.467476
64.880 4.502177
64.885 4.302069
64.890 4.37248
64.895 4.442666
64.900 4.950204
64.905 5.072646
64.910 4.920413
64.915 5.106596
64.920 4.757815
64.925 4.425113
64.930 4.646942
64.935 4.763772
64.940 5.036402
64.945 5.168301
64.950 5.221675
64.955 5.515551
64.960 5.78538
64.965 5.68134
64.970 5.777166
64.975 5.95487
64.980 5.87978
64.985 5.856512
64.990 6.063876
64.995 6.32214
65.000 6.760486
65.005 6.510737
65.010 6.360925
65.015 6.281148
65.020 6.213325
65.025 6.078926
65.030 5.891682
65.035 5.454689
65.040 5.550734
65.045 5.629606
65.050 5.571511
65.055 5.691363
65.060 5.948241
65.065 6.156217
65.070 6.395861
65.075 6.288223
65.080 6.121644
65.085 6.084908
65.090 5.821963
65.095 5.50169
65.100 5.261324
65.105 5.037256
65.110 4.997912
65.115 5.234114
65.120 5.457276
65.125 5.657413
65.130 5.658811
65.135 6.008931
65.140 5.993261
65.145 5.867175
65.150 5.686198
65.155 5.673394
65.160 5.400393
65.165 5.395808
65.170 5.247167
65.175 5.397161
65.180 5.877799
65.185 6.065331
65.190 6.106185
65.195 6.090397
65.200 6.07012
65.205 6.06216
65.210 5.745423
65.215 5.361627
65.220 5.111941
65.225 4.998822
65.230 5.010809
65.235 5.036292
65.240 5.106308
65.245 5.315519
65.250 5.477766
65.255 5.350048
65.260 5.717509
65.265 6.143583
65.270 6.175605
65.275 6.208685
65.280 6.254952
65.285 6.705308
65.290 6.742405
65.295 6.267297
65.300 6.026534
65.305 6.132473
65.310 6.165206
65.315 6.173925
65.320 5.855987
65.325 5.930572
65.330 5.731428
65.335 5.499453
65.340 5.28124
65.345 5.425393
65.350 5.162578
65.355 4.875764
65.360 5.110109
65.365 5.540051
65.370 5.792509
65.375 5.670938
65.380 5.282588
65.385 5.292531
65.390 5.589677
65.395 5.311373
65.400 5.190367
65.405 5.281055
65.410 5.285634
65.415 5.487204
65.420 5.475034
65.425 5.21411
65.430 5.308013
65.435 5.050161
65.440 4.954069
65.445 5.033298
65.450 5.204594
65.455 5.201873
65.460 5.123697
65.465 5.074252
65.470 5.40844
65.475 5.450853
65.480 5.420467
65.485 5.438482
65.490 5.491992
65.495 5.698699
65.500 5.81173
65.505 5.734329
65.510 5.376726
65.515 5.119026
65.520 4.932457
65.525 5.486025
65.530 5.690968
65.535 5.747557
65.540 5.587636
65.545 5.886569
65.550 6.149555
65.555 5.805602
65.560 5.372715
65.565 5.237332
65.570 5.011518
65.575 5.229696
65.580 5.451967
65.585 5.536499
65.590 5.953299
65.595 6.040602
65.600 5.987021
65.605 6.313697
65.610 6.457694
65.615 6.266012
65.620 6.05538
65.625 5.71111
65.630 5.511386
65.635 5.601875
65.640 5.245525
65.645 4.996077
65.650 4.876866
65.655 4.948102
65.660 5.450326
65.665 5.733308
65.670 5.484416
65.675 5.409629
65.680 5.482433
65.685 5.827198
65.690 5.845847
65.695 5.158643
65.700 5.172324
65.705 5.365367
65.710 5.378201
65.715 5.28392
65.720 5.152333
65.725 5.41238
65.730 5.499717
65.735 5.334171
65.740 5.568458
65.745 5.560612
65.750 5.352094
65.755 5.123421
65.760 4.958541
65.765 4.942681
65.770 4.688178
65.775 4.758141
65.780 4.974853
65.785 5.234285
65.790 5.315919
65.795 5.121774
65.800 5.502127
65.805 5.617296
65.810 5.325879
65.815 5.52305
65.820 5.417827
65.825 5.533954
65.830 5.618809
65.835 5.415067
65.840 5.224526
65.845 5.096976
65.850 4.795936
65.855 5.051174
65.860 4.914802
65.865 4.984668
65.870 5.132619
65.875 5.294766
65.880 5.100916
65.885 4.875656
65.890 4.649813
65.895 4.730019
65.900 4.445907
65.905 4.324526
65.910 4.543362
65.915 4.665262
65.920 4.859324
65.925 4.785879
65.930 4.5784
65.935 4.635117
65.940 4.461818
65.945 4.409161
65.950 4.56488
65.955 4.594336
65.960 5.004573
65.965 5.398306
65.970 5.862439
65.975 6.001594
65.980 5.934474
65.985 6.121026
65.990 6.258277
65.995 6.290202
66.000 6.10711
66.005 5.720543
66.010 5.825801
66.015 6.256447
66.020 6.428207
66.025 6.37942
66.030 6.414075
66.035 6.607335
66.040 6.748328
66.045 6.783329
66.050 6.397011
66.055 6.015731
66.060 5.881655
66.065 5.431973
66.070 5.220902
66.075 5.435836
66.080 5.441362
66.085 5.418001
66.090 5.455851
66.095 5.765269
66.100 5.819276
66.105 5.759197
66.110 5.538194
66.115 5.303714
66.120 5.076448
66.125 5.065015
66.130 4.728158
66.135 5.054532
66.140 5.190273
66.145 5.17455
66.150 5.064562
66.155 5.409976
66.160 5.618107
66.165 5.907681
66.170 5.892644
66.175 5.676895
66.180 5.571311
66.185 5.731328
66.190 5.32038
66.195 4.852315
66.200 4.490183
66.205 4.470534
66.210 4.67356
66.215 4.948042
66.220 4.903734
66.225 5.08167
66.230 5.546566
66.235 5.704458
66.240 5.546818
66.245 5.448273
66.250 5.263081
66.255 5.280967
66.260 5.375886
66.265 5.365265
66.270 5.433403
66.275 5.774335
66.280 5.958313
66.285 6.174951
66.290 6.324083
66.295 6.463194
66.300 6.077639
66.305 5.659845
66.310 5.273361
66.315 5.074462
66.320 4.90981
66.325 4.90898
66.330 4.826975
66.335 5.364867
66.340 5.951538
66.345 6.238142
66.350 6.045828
66.355 5.676781
66.360 5.707194
66.365 5.912318
66.370 5.922385
66.375 5.783667
66.380 5.890184
66.385 6.260555
66.390 6.635888
66.395 6.880084
66.400 6.77373
66.405 6.859955
66.410 6.989339
66.415 7.142285
66.420 6.927454
66.425 6.70116
66.430 6.674083
66.435 6.419614
66.440 6.219181
66.445 5.980272
66.450 5.725983
66.455 6.011689
66.460 5.986696
66.465 5.751306
66.470 5.874033
66.475 5.824005
66.480 5.653034
66.485 5.678727
66.490 5.389967
66.495 5.441836
66.500 5.432857
66.505 5.266487
66.510 5.530887
66.515 5.644147
66.520 5.434331
66.525 5.552856
66.530 5.764602
66.535 5.470892
66.540 5.262526
66.545 5.089193
66.550 5.14136
66.555 5.429591
66.560 5.322412
66.565 5.16955
66.570 5.502564
66.575 5.790437
66.580 5.653211
66.585 5.536555
66.590 5.392854
66.595 5.393879
66.600 5.443935
66.605 5.398159
66.610 5.330088
66.615 5.183192
66.620 5.3811
66.625 5.559818
66.630 5.647256
66.635 5.719599
66.640 5.68475
66.645 5.720155
66.650 5.705942
66.655 5.593585
66.660 5.215632
66.665 5.066465
66.670 4.85165
66.675 4.684162
66.680 4.336592
66.685 4.014884
66.690 3.948835
66.695 4.162967
66.700 4.174893
66.705 4.279673
66.710 4.258697
66.715 4.464673
66.720 5.050683
66.725 5.256258
66.730 5.354808
66.735 5.757601
66.740 5.945851
66.745 6.012642
66.750 6.290745
66.755 6.140846
66.760 6.024134
66.765 6.015461
66.770 6.014134
66.775 5.856703
66.780 5.950746
66.785 5.974048
66.790 6.07576
66.795 6.018233
66.800 5.952788
66.805 5.864805
66.810 6.197959
66.815 6.479514
66.820 6.406393
66.825 6.392406
66.830 6.666802
66.835 6.948535
66.840 6.941345
66.845 6.772169
66.850 6.693299
66.855 6.992288
66.860 7.303867
66.865 7.092282
66.870 6.844269
66.875 7.063846
66.880 7.395423
66.885 7.589756
66.890 7.560998
66.895 7.551753
66.900 7.409099
66.905 7.417145
66.910 7.313949
66.915 7.361192
66.920 7.49173
66.925 7.053317
66.930 7.143761
66.935 7.66152
66.940 7.796055
66.945 7.813826
66.950 7.48468
66.955 7.445098
66.960 7.935658
66.965 7.740023
66.970 7.991696
66.975 8.447021
66.980 8.551653
66.985 9.734055
66.990 10.16235
66.995 10.457908
67.000 11.233932
67.005 11.728163
67.010 12.307913
67.015 13.086964
67.020 12.92074
67.025 13.173656
67.030 13.498137
67.035 13.030372
67.040 12.986753
67.045 12.79402
67.050 12.853048
67.055 12.903236
67.060 13.04987
67.065 13.229942
67.070 14.101481
67.075 14.020554
67.080 13.894594
67.085 14.302819
67.090 14.802068
67.095 15.305003
67.100 16.206299
67.105 17.029043
67.110 17.938021
67.115 18.112707
67.120 17.914619
67.125 18.265064
67.130 18.046537
67.135 17.323265
67.140 16.726099
67.145 16.35474
67.150 16.882635
67.155 16.824812
67.160 16.818359
67.165 16.752464
67.170 16.625002
67.175 16.82247
67.180 17.087688
67.185 16.817904
67.190 16.658741
67.195 17.08976
67.200 17.214672
67.205 17.055811
67.210 16.688097
67.215 16.529627
67.220 16.868868
67.225 16.561285
67.230 16.402737
67.235 16.84071
67.240 16.831465
67.245 16.291924
67.250 15.858406
67.255 15.674114
67.260 15.886321
67.265 15.481878
67.270 15.438209
67.275 15.425893
67.280 15.648818
67.285 15.675202
67.290 15.567778
67.295 15.877927
67.300 15.145944
67.305 14.461307
67.310 14.861977
67.315 14.694864
67.320 14.482119
67.325 14.341306
67.330 14.140256
67.335 14.506849
67.340 14.483808
67.345 13.90115
67.350 13.674415
67.355 13.57389
67.360 13.122789
67.365 12.905725
67.370 12.799067
67.375 12.427816
67.380 12.62161
67.385 12.394217
67.390 12.278039
67.395 12.151667
67.400 11.689597
67.405 11.901273
67.410 12.209582
67.415 12.226691
67.420 12.286891
67.425 11.513497
67.430 11.618626
67.435 10.994407
67.440 9.757726
67.445 8.814824
67.450 8.413494
67.455 8.449759
67.460 8.581819
67.465 8.417693
67.470 8.837408
67.475 9.291189
67.480 9.738306
67.485 9.455021
67.490 9.442574
67.495 9.619377
67.500 9.468628
67.505 9.308628
67.510 8.699396
67.515 8.297544
67.520 8.183181
67.525 7.714895
67.530 7.232161
67.535 7.107647
67.540 6.978907
67.545 7.309799
67.550 7.598053
67.555 7.665353
67.560 7.973135
67.565 8.226377
67.570 8.244678
67.575 8.164761
67.580 8.108945
67.585 7.885739
67.590 7.535776
67.595 7.264632
67.600 7.108863
67.605 6.864109
67.610 6.560293
67.615 6.124288
67.620 6.18095
67.625 6.492934
67.630 6.448665
67.635 6.195423
67.640 6.332455
67.645 6.70731
67.650 6.708413
67.655 6.473293
67.660 6.143387
67.665 6.034678
67.670 6.237401
67.675 6.32111
67.680 5.952884
67.685 5.831493
67.690 5.853499
67.695 6.045164
67.700 6.017497
67.705 5.876562
67.710 5.959441
67.715 6.023431
67.720 6.281177
67.725 6.464836
67.730 6.133543
67.735 6.594344
67.740 6.411906
67.745 6.279937
67.750 6.377515
67.755 6.078392
67.760 5.703687
67.765 5.70902
67.770 5.369741
67.775 5.455111
67.780 5.424179
67.785 5.623867
67.790 5.461921
67.795 5.612178
67.800 5.88138
67.805 5.913787
67.810 6.178888
67.815 6.208106
67.820 5.995905
67.825 6.13035
67.830 6.054053
67.835 5.581396
67.840 5.482396
67.845 5.466022
67.850 5.408808
67.855 5.247747
67.860 5.325435
67.865 5.477732
67.870 5.846661
67.875 5.737024
67.880 5.420551
67.885 5.431191
67.890 5.561115
67.895 5.752982
67.900 5.804003
67.905 6.106492
67.910 6.510574
67.915 6.912409
67.920 7.04587
67.925 6.845531
67.930 6.756433
67.935 6.552728
67.940 6.307753
67.945 5.975165
67.950 5.671924
67.955 5.640695
67.960 5.993865
67.965 6.457456
67.970 6.752084
67.975 6.683921
67.980 6.639945
67.985 6.504915
67.990 6.654397
67.995 6.40424
68.000 5.735949
68.005 5.308014
68.010 5.126797
68.015 5.183482
68.020 5.415644
68.025 5.261582
68.030 5.038846
68.035 5.381399
68.040 5.593447
68.045 5.697755
68.050 5.475786
68.055 5.207644
68.060 5.173798
68.065 5.453952
68.070 5.296096
68.075 5.247371
68.080 5.127283
68.085 5.204902
68.090 5.415836
68.095 5.413463
68.100 5.48986
68.105 5.573925
68.110 5.921581
68.115 6.178933
68.120 5.751084
68.125 5.293371
68.130 5.303849
68.135 5.238342
68.140 5.287049
68.145 4.78363
68.150 4.492526
68.155 4.96734
68.160 5.505647
68.165 5.719658
68.170 5.696045
68.175 5.666257
68.180 6.478889
68.185 6.766643
68.190 6.48457
68.195 6.154943
68.200 5.959203
68.205 5.78365
68.210 5.865771
68.215 5.305487
68.220 5.121752
68.225 5.206708
68.230 5.370464
68.235 5.321678
68.240 5.159062
68.245 5.010029
68.250 5.115059
68.255 5.498833
68.260 5.438339
68.265 5.200675
68.270 5.293361
68.275 5.588095
68.280 5.884093
68.285 5.807709
68.290 5.783726
68.295 6.177821
68.300 6.249465
68.305 6.357639
68.310 6.07508
68.315 5.790178
68.320 5.805773
68.325 6.028157
68.330 5.813675
68.335 5.719979
68.340 5.714363
68.345 5.448986
68.350 5.519695
68.355 5.380907
68.360 4.842485
68.365 4.96671
68.370 4.963151
68.375 4.846973
68.380 5.050359
68.385 5.28362
68.390 5.483709
68.395 5.510356
68.400 5.679966
68.405 5.760562
68.410 5.721994
68.415 5.670065
68.420 5.828381
68.425 6.148599
68.430 6.227789
68.435 5.93765
68.440 5.745185
68.445 5.493412
68.450 5.369888
68.455 4.953883
68.460 4.830454
68.465 4.611664
68.470 4.909338
68.475 5.289223
68.480 5.71102
68.485 6.165875
68.490 6.295763
68.495 6.352469
68.500 6.376184
68.505 6.076931
68.510 6.091219
68.515 5.877195
68.520 5.450545
68.525 5.286024
68.530 5.155371
68.535 5.395855
68.540 5.331902
68.545 5.096653
68.550 5.211065
68.555 5.587346
68.560 5.64111
68.565 5.464821
68.570 5.323384
68.575 5.160714
68.580 5.118359
68.585 5.041594
68.590 5.072544
68.595 5.146339
68.600 5.310223
68.605 5.38975
68.610 5.617174
68.615 5.728652
68.620 5.776245
68.625 5.551895
68.630 5.614771
68.635 5.376282
68.640 5.070077
68.645 5.264462
68.650 5.199716
68.655 4.830782
68.660 4.702088
68.665 4.871964
68.670 5.340062
68.675 5.492206
68.680 5.056361
68.685 5.122185
68.690 5.495306
68.695 5.514354
68.700 5.467048
68.705 5.265658
68.710 5.362714
68.715 5.337821
68.720 5.224836
68.725 5.103837
68.730 5.142986
68.735 4.979762
68.740 5.373714
68.745 5.485289
68.750 5.93689
68.755 5.915555
68.760 5.896497
68.765 5.785843
68.770 6.148821
68.775 5.850637
68.780 5.807157
68.785 5.933362
68.790 6.01876
68.795 6.515305
68.800 6.957122
68.805 6.470993
68.810 6.172203
68.815 6.047728
68.820 5.727942
68.825 5.47075
68.830 4.890297
68.835 4.277059
68.840 4.244925
68.845 4.42557
68.850 4.49198
68.855 4.636964
68.860 4.685295
68.865 4.617578
68.870 4.884266
68.875 5.095017
68.880 5.072166
68.885 4.917883
68.890 4.836071
68.895 4.955724
68.900 5.107081
68.905 4.85285
68.910 4.759007
68.915 4.809101
68.920 4.83092
68.925 4.961432
68.930 4.918806
68.935 5.115348
68.940 5.404743
68.945 5.59555
68.950 5.529159
68.955 5.659288
68.960 5.751543
68.965 5.512038
68.970 5.144105
68.975 5.006527
68.980 4.957158
68.985 4.986168
68.990 4.662537
68.995 4.613832
69.000 4.897209
69.005 5.277668
69.010 5.011143
69.015 5.102189
69.020 5.221096
69.025 5.41371
69.030 5.341798
69.035 5.080671
69.040 5.002686
69.045 5.016344
69.050 4.950541
69.055 4.839407
69.060 4.562891
69.065 4.547786
69.070 4.774765
69.075 4.776927
69.080 5.179567
69.085 5.163661
69.090 5.32666
69.095 5.367068
69.100 5.307082
69.105 5.193888
69.110 5.302831
69.115 5.251378
69.120 5.108346
69.125 5.063062
69.130 5.219657
69.135 5.204854
69.140 4.878017
69.145 4.730575
69.150 4.471569
69.155 4.521057
69.160 4.629833
69.165 4.670003
69.170 4.768429
69.175 5.096781
69.180 4.927934
69.185 4.915831
69.190 5.350935
69.195 5.058556
69.200 5.051371
69.205 5.236887
69.210 5.061445
69.215 5.118473
69.220 5.192173
69.225 4.875729
69.230 4.950719
69.235 4.789153
69.240 4.539657
69.245 4.686145
69.250 5.151498
69.255 5.205842
69.260 5.394313
69.265 5.380854
69.270 5.506518
69.275 5.392578
69.280 5.525051
69.285 5.223635
69.290 5.068116
69.295 4.918983
69.300 4.926309
69.305 4.967463
69.310 5.097268
69.315 4.926287
69.320 5.002012
69.325 4.783133
69.330 4.910983
69.335 5.097902
69.340 5.325346
69.345 5.270612
69.350 5.476261
69.355 5.433815
69.360 5.832438
69.365 5.919948
69.370 5.94801
69.375 5.595653
69.380 5.977593
69.385 5.858206
69.390 5.777772
69.395 5.52382
69.400 5.613073
69.405 5.470603
69.410 5.755756
69.415 5.677063
69.420 5.345809
69.425 5.289071
69.430 5.212249
69.435 5.018072
69.440 5.303118
69.445 5.349973
69.450 5.347065
69.455 5.563076
69.460 5.940287
69.465 6.173137
69.470 5.792565
69.475 5.634977
69.480 5.558476
69.485 5.856889
69.490 6.160962
69.495 5.85366
69.500 5.613947
69.505 5.879563
69.510 5.592658
69.515 5.703545
69.520 5.380582
69.525 5.217034
69.530 5.337557
69.535 5.414806
69.540 5.421498
69.545 5.333503
69.550 5.229764
69.555 4.964902
69.560 5.19571
69.565 5.421015
69.570 5.646175
69.575 5.682542
69.580 5.768949
69.585 5.574759
69.590 5.434256
69.595 4.996953
69.600 4.649934
69.605 4.646713
69.610 4.807497
69.615 4.806483
69.620 4.673338
69.625 4.622558
69.630 4.766749
69.635 4.911712
69.640 5.05747
69.645 4.790349
69.650 4.737914
69.655 5.13215
69.660 5.509524
69.665 5.694128
69.670 5.754841
69.675 5.569353
69.680 5.698534
69.685 5.582358
69.690 5.481081
69.695 5.230942
69.700 5.248745
69.705 5.543242
69.710 5.541872
69.715 5.404932
69.720 5.500266
69.725 5.72401
69.730 5.979094
69.735 5.890352
69.740 5.577632
69.745 5.829033
69.750 6.099707
69.755 6.261933
69.760 6.013505
69.765 5.841619
69.770 5.583077
69.775 5.546885
69.780 5.537351
69.785 5.33983
69.790 5.536772
69.795 5.606677
69.800 5.598631
69.805 5.612574
69.810 5.493709
69.815 5.231856
69.820 5.144245
69.825 4.96706
69.830 5.023763
69.835 4.808479
69.840 4.80219
69.845 4.823615
69.850 5.079781
69.855 4.88321
69.860 4.965059
69.865 5.151429
69.870 5.496817
69.875 5.617665
69.880 5.772673
69.885 6.219901
69.890 6.287131
69.895 6.144621
69.900 5.711703
69.905 5.458354
69.910 5.624774
69.915 5.288803
69.920 4.853739
69.925 4.936299
69.930 4.862784
69.935 5.059343
69.940 5.541121
69.945 5.449514
69.950 5.506133
69.955 5.67743
69.960 5.572556
69.965 5.620773
69.970 5.395728
69.975 5.049005
69.980 4.879014
69.985 4.788326
69.990 4.696977
69.995 4.786372
70.000 4.999897
70.005 5.126976
70.010 5.02177
70.015 4.852132
70.020 4.980515
70.025 4.912066
70.030 4.751206
70.035 4.711253
70.040 4.650592
70.045 4.528083
70.050 4.714752
70.055 4.644317
70.060 4.550035
70.065 4.612017
70.070 4.77471
70.075 4.967864
70.080 5.658894
70.085 5.856161
70.090 6.135614
70.095 6.521281
70.100 6.651664
70.105 6.453161
70.110 6.158032
70.115 5.79659
70.120 5.908532
70.125 5.604954
70.130 5.136613
70.135 4.843758
70.140 4.593425
70.145 4.805927
70.150 4.529842
70.155 4.276176
70.160 4.494915
70.165 4.585336
70.170 4.553839
70.175 4.703784
70.180 4.630538
70.185 4.633366
70.190 4.576972
70.195 4.524638
70.200 4.575766
70.205 4.870388
70.210 5.173321
70.215 5.418669
70.220 5.423195
70.225 5.288112
70.230 5.397923
70.235 5.210675
70.240 4.943195
70.245 4.894934
70.250 4.980988
70.255 5.248653
70.260 5.665412
70.265 5.56305
70.270 5.950172
70.275 6.240776
70.280 5.707994
70.285 5.595871
70.290 5.682138
70.295 5.536366
70.300 5.319721
70.305 5.219685
70.310 5.389145
70.315 5.917677
70.320 5.810217
70.325 5.583184
70.330 5.822057
70.335 6.323063
70.340 6.44157
70.345 6.336533
70.350 6.087391
70.355 6.087133
70.360 6.132595
70.365 6.094611
70.370 5.605136
70.375 5.128496
70.380 4.872437
70.385 4.773635
70.390 4.809127
70.395 4.769511
70.400 4.673637
70.405 4.888786
70.410 5.150923
70.415 5.089686
70.420 5.29323
70.425 5.191356
70.430 5.263343
70.435 5.190832
70.440 5.479331
70.445 5.791996
70.450 5.873456
70.455 5.6071
70.460 5.720402
70.465 5.710686
70.470 5.780982
70.475 5.362237
70.480 5.460321
70.485 6.110292
70.490 6.485378
70.495 6.403945
70.500 6.356657
70.505 6.242214
70.510 6.072199
70.515 5.922176
70.520 5.431806
70.525 5.32357
70.530 5.22767
70.535 5.189249
70.540 5.112827
70.545 5.689353
70.550 5.603136
70.555 5.887332
70.560 5.625708
70.565 5.516285
70.570 5.38398
70.575 5.451014
70.580 4.869912
70.585 4.961776
70.590 4.577518
70.595 4.698915
70.600 4.968798
70.605 5.150804
70.610 5.235128
70.615 5.560857
70.620 5.424208
70.625 5.562056
70.630 5.578767
70.635 5.33001
70.640 5.266013
70.645 5.134996
70.650 4.609521
70.655 4.822876
70.660 4.730335
70.665 4.529871
70.670 4.581415
70.675 4.820103
70.680 4.617522
70.685 4.844817
70.690 4.887175
70.695 5.332421
70.700 5.557388
70.705 5.421862
70.710 5.19332
70.715 5.1976
70.720 5.057561
70.725 4.786129
70.730 4.296471
70.735 4.289096
70.740 4.326072
70.745 4.459457
70.750 4.657005
70.755 4.64534
70.760 4.457713
70.765 4.814405
70.770 4.75706
70.775 4.819637
70.780 4.825493
70.785 4.92594
70.790 5.00935
70.795 5.020006
70.800 4.713138
70.805 4.925905
70.810 5.085272
70.815 5.2851
70.820 5.339892
70.825 5.132867
70.830 5.368604
70.835 5.323784
70.840 5.197265
70.845 5.220597
70.850 5.043915
70.855 5.359704
70.860 5.571984
70.865 5.420853
70.870 5.671123
70.875 5.91081
70.880 5.88858
70.885 5.720453
70.890 5.492456
70.895 5.665055
70.900 5.703405
70.905 5.235402
70.910 4.933341
70.915 4.978154
70.920 4.989435
70.925 5.032555
70.930 4.802964
70.935 4.881969
70.940 5.257922
70.945 5.492353
70.950 5.453823
70.955 5.589574
70.960 5.448302
70.965 5.756916
70.970 5.841906
70.975 5.628708
70.980 5.618592
70.985 5.701973
70.990 5.685639
70.995 5.517482
71.000 5.168613
71.005 4.786667
71.010 4.67244
71.015 4.467242
71.020 4.450265
71.025 4.494123
71.030 4.66712
71.035 4.814982
71.040 5.216583
71.045 5.668952
71.050 5.644376
71.055 5.322149
71.060 5.441989
71.065 5.639123
71.070 5.903144
71.075 5.452735
71.080 5.290129
71.085 5.579949
71.090 5.795679
71.095 5.482452
71.100 5.302386
71.105 5.692277
71.110 6.322441
71.115 6.277147
71.120 6.13183
71.125 6.181126
71.130 6.382333
71.135 6.56236
71.140 5.906391
71.145 5.431233
71.150 5.321643
71.155 5.320032
71.160 4.999886
71.165 4.809342
71.170 4.697235
71.175 5.00766
71.180 5.130999
71.185 5.210534
71.190 5.276648
71.195 5.584705
71.200 5.739189
71.205 5.977038
71.210 5.702525
71.215 5.639071
71.220 5.468351
71.225 5.433031
71.230 5.216238
71.235 5.171091
71.240 4.706605
71.245 4.618577
71.250 4.915087
71.255 5.200536
71.260 5.457444
71.265 5.341087
71.270 5.230445
71.275 5.433565
71.280 5.87682
71.285 5.837779
71.290 5.487811
71.295 5.23872
71.300 5.396117
71.305 5.373072
71.310 5.023309
71.315 4.471959
71.320 4.363367
71.325 4.607105
71.330 4.895476
71.335 5.136265
71.340 5.332294
71.345 5.83217
71.350 6.09495
71.355 6.075489
71.360 5.795165
71.365 5.777395
71.370 5.719618
71.375 5.5946
71.380 5.36298
71.385 5.567665
71.390 5.445275
71.395 5.583194
71.400 5.63489
71.405 5.673765
71.410 5.720803
71.415 5.685318
71.420 5.443293
71.425 5.497241
71.430 5.407547
71.435 5.007236
71.440 4.744411
71.445 5.050735
71.450 4.821754
71.455 4.582495
71.460 4.307837
71.465 4.211433
71.470 4.374843
71.475 4.31591
71.480 3.865896
71.485 4.041283
71.490 4.339028
71.495 4.664746
71.500 4.892982
71.505 5.261241
71.510 5.352655
71.515 5.845874
71.520 5.777296
71.525 5.834785
71.530 5.728286
71.535 5.466476
71.540 5.132683
71.545 5.025032
71.550 5.031366
71.555 4.925012
71.560 4.95799
71.565 5.037425
71.570 5.285112
71.575 5.496763
71.580 5.432768
71.585 5.495237
71.590 5.68136
71.595 5.636908
71.600 5.817089
71.605 5.742665
71.610 5.816238
71.615 5.906543
71.620 6.081577
71.625 6.333701
71.630 6.383866
71.635 6.16708
71.640 6.058316
71.645 5.968237
71.650 5.773287
71.655 5.155173
71.660 4.936619
71.665 4.989548
71.670 4.938908
71.675 5.028381
71.680 4.941375
71.685 5.415624
71.690 6.103437
71.695 6.04025
71.700 5.778101
71.705 5.894322
71.710 5.981894
71.715 5.976047
71.720 5.282379
71.725 4.840625
71.730 4.706094
71.735 4.922764
71.740 5.086987
71.745 5.212028
71.750 5.142277
71.755 5.44735
71.760 5.633389
71.765 5.721019
71.770 5.713569
71.775 5.415712
71.780 5.471524
71.785 5.57246
71.790 5.717542
71.795 5.70933
71.800 5.75381
71.805 5.904868
71.810 5.581884
71.815 5.625948
71.820 5.722107
71.825 5.609469
71.830 5.378113
71.835 5.236327
71.840 5.015347
71.845 4.959518
71.850 5.0192
71.855 4.918174
71.860 4.573544
71.865 4.838972
71.870 4.966738
71.875 5.618479
71.880 5.559836
71.885 5.278578
71.890 5.147099
71.895 5.28306
71.900 5.126293
71.905 4.91997
71.910 4.83707
71.915 5.064053
71.920 5.265159
71.925 5.176753
71.930 4.978927
71.935 5.196845
71.940 4.878465
71.945 4.62822
71.950 4.704439
71.955 4.745334
71.960 5.052904
71.965 5.421014
71.970 5.3901
71.975 5.456892
71.980 5.552508
71.985 5.236136
71.990 5.205643
71.995 5.125916
72.000 5.130858
72.005 5.185968
72.010 5.164211
72.015 5.030668
72.020 5.066275
72.025 4.949691
72.030 4.95369
72.035 4.728082
72.040 4.656572
72.045 4.928821
72.050 4.9795
72.055 4.970129
72.060 5.28783
72.065 5.417236
72.070 5.297311
72.075 5.0421
72.080 4.694837
72.085 4.853652
72.090 5.030308
72.095 4.557773
72.100 4.520576
72.105 4.704342
72.110 5.085205
72.115 5.459755
72.120 5.473729
72.125 5.619435
72.130 6.019746
72.135 6.234574
72.140 6.374624
72.145 6.267532
72.150 6.256044
72.155 6.381244
72.160 6.109036
72.165 5.92785
72.170 5.86688
72.175 5.708272
72.180 5.497218
72.185 5.338549
72.190 4.947908
72.195 4.916409
72.200 4.687551
72.205 4.706713
72.210 5.112064
72.215 4.934386
72.220 4.875762
72.225 4.867614
72.230 4.927845
72.235 4.945209
72.240 4.604107
72.245 4.193767
72.250 4.123229
72.255 4.201394
72.260 4.752817
72.265 4.812344
72.270 4.61783
72.275 4.38971
72.280 4.589147
72.285 4.568023
72.290 4.652598
72.295 4.289362
72.300 4.246692
72.305 4.573648
72.310 4.943248
72.315 5.170885
72.320 5.398494
72.325 5.253812
72.330 5.155737
72.335 5.227572
72.340 5.319796
72.345 5.10611
72.350 5.248864
72.355 5.093568
72.360 5.010031
72.365 5.40871
72.370 5.748665
72.375 5.639223
72.380 5.707889
72.385 5.647274
72.390 5.785961
72.395 5.872611
72.400 5.747468
72.405 5.549212
72.410 5.319886
72.415 5.000129
72.420 4.976802
72.425 4.975917
72.430 4.932967
72.435 4.858468
72.440 4.64562
72.445 5.083923
72.450 5.189555
72.455 5.03688
72.460 4.757871
72.465 4.747445
72.470 4.832898
72.475 4.988496
72.480 4.991107
72.485 5.085611
72.490 5.451958
72.495 5.915888
72.500 5.73271
72.505 5.657036
72.510 5.429033
72.515 5.214931
72.520 5.100343
72.525 4.776458
72.530 4.656268
72.535 5.004791
72.540 5.033018
72.545 5.227195
72.550 5.235263
72.555 5.421509
72.560 5.463352
72.565 5.575809
72.570 5.411132
72.575 5.372978
72.580 5.440985
72.585 5.380857
72.590 5.232961
72.595 5.146774
72.600 5.2674
72.605 5.408172
72.610 5.356949
72.615 5.383921
72.620 5.250825
72.625 5.341533
72.630 5.321197
72.635 5.264435
72.640 5.141694
72.645 5.263078
72.650 5.601149
72.655 5.812658
72.660 5.673409
72.665 5.660726
72.670 5.418887
72.675 5.571705
72.680 5.506986
72.685 5.130128
72.690 5.156481
72.695 5.267277
72.700 5.341306
72.705 5.259501
72.710 5.143538
72.715 5.228242
72.720 5.478172
72.725 5.375736
72.730 5.516526
72.735 5.385942
72.740 5.295806
72.745 5.217881
72.750 5.09726
72.755 4.656054
72.760 4.552694
72.765 4.256035
72.770 4.48657
72.775 4.510878
72.780 4.300544
72.785 4.231542
72.790 4.582517
72.795 4.576169
72.800 4.728563
72.805 4.394361
72.810 4.732027
72.815 4.74035
72.820 4.93411
72.825 4.88776
72.830 5.007277
72.835 5.205307
72.840 5.327911
72.845 5.488416
72.850 5.56368
72.855 5.45237
72.860 5.286782
72.865 5.403224
72.870 5.424535
72.875 5.141922
72.880 4.813391
72.885 4.954598
72.890 4.736961
72.895 4.849967
72.900 4.756459
72.905 4.650807
72.910 4.805555
72.915 4.752169
72.920 4.879732
72.925 4.948053
72.930 4.909334
72.935 4.960022
72.940 5.399347
72.945 5.508697
72.950 5.624028
72.955 5.829053
72.960 5.548568
72.965 5.4249
72.970 5.355908
72.975 5.441543
72.980 5.519574
72.985 5.186175
72.990 5.265598
72.995 5.404459
73.000 5.603025
73.005 5.431303
73.010 5.387246
73.015 5.560809
73.020 5.443558
73.025 5.377958
73.030 5.498844
73.035 5.489504
73.040 5.269578
73.045 5.07396
73.050 5.144132
73.055 5.473212
73.060 5.929014
73.065 5.781705
73.070 5.883999
73.075 6.078763
73.080 6.127268
73.085 5.784843
73.090 5.366652
73.095 4.784396
73.100 4.766555
73.105 4.856398
73.110 4.914305
73.115 4.702924
73.120 4.64558
73.125 4.865953
73.130 5.23912
73.135 5.241725
73.140 4.982779
73.145 4.725801
73.150 4.769291
73.155 5.075173
73.160 5.053566
73.165 4.84258
73.170 4.966858
73.175 5.185103
73.180 5.698035
73.185 5.725504
73.190 5.673273
73.195 5.609888
73.200 5.611299
73.205 5.450306
73.210 5.309898
73.215 4.810185
73.220 4.871032
73.225 4.826452
73.230 4.799132
73.235 4.702186
73.240 4.630338
73.245 4.557717
73.250 4.738102
73.255 4.71221
73.260 4.422931
73.265 4.441926
73.270 4.634329
73.275 4.848211
73.280 4.799089
73.285 4.487623
73.290 4.49858
73.295 5.020951
73.300 5.447622
73.305 5.412189
73.310 5.384604
73.315 5.557444
73.320 5.47195
73.325 5.41182
73.330 4.833394
73.335 4.779322
73.340 4.677285
73.345 4.892865
73.350 4.805503
73.355 4.938671
73.360 4.970349
73.365 4.856365
73.370 4.950997
73.375 4.860771
73.380 4.994294
73.385 5.069148
73.390 5.403833
73.395 5.257666
73.400 5.47656
73.405 5.103898
73.410 5.016102
73.415 4.98846
73.420 4.908552
73.425 4.83179
73.430 5.117593
73.435 5.015235
73.440 5.160018
73.445 5.085225
73.450 5.089088
73.455 5.297165
73.460 5.306853
73.465 5.218509
73.470 5.628114
73.475 5.691262
73.480 5.75684
73.485 5.605945
73.490 5.591147
73.495 5.586752
73.500 5.747326
73.505 5.739898
73.510 5.53963
73.515 5.573365
73.520 5.698804
73.525 5.594274
73.530 5.57415
73.535 5.109678
73.540 4.948579
73.545 5.188435
73.550 5.39255
73.555 5.094844
73.560 5.264508
73.565 5.126035
73.570 5.033037
73.575 5.126283
73.580 5.035095
73.585 4.750711
73.590 4.520586
73.595 4.443694
73.600 4.549363
73.605 4.574997
73.610 4.243812
73.615 4.116745
73.620 4.075971
73.625 4.328821
73.630 4.786808
73.635 5.307982
73.640 5.491578
73.645 5.798172
73.650 6.016297
73.655 6.084934
73.660 5.674972
73.665 5.466269
73.670 5.432854
73.675 5.354191
73.680 5.295402
73.685 5.274268
73.690 5.606779
73.695 5.598709
73.700 5.10787
73.705 5.037121
73.710 5.15837
73.715 5.096152
73.720 5.276417
73.725 5.350928
73.730 5.532134
73.735 5.638061
73.740 5.512469
73.745 5.882175
73.750 5.586638
73.755 5.470964
73.760 5.432459
73.765 5.388385
73.770 5.189881
73.775 4.784355
73.780 4.419282
73.785 4.322083
73.790 4.457458
73.795 4.190523
73.800 4.22684
73.805 4.453485
73.810 4.491695
73.815 4.493783
73.820 4.414329
73.825 4.127869
73.830 4.067419
73.835 4.249381
73.840 4.745793
73.845 5.173397
73.850 5.200332
73.855 5.297094
73.860 5.24005
73.865 5.331737
73.870 5.113894
73.875 5.034032
73.880 4.98454
73.885 5.221594
73.890 5.659863
73.895 5.900099
73.900 5.908248
73.905 5.8327
73.910 5.289901
73.915 4.984559
73.920 4.516366
73.925 4.190056
73.930 4.211875
73.935 4.38384
73.940 4.411676
73.945 4.593606
73.950 4.964681
73.955 5.191812
73.960 5.071844
73.965 5.089725
73.970 4.888976
73.975 5.021178
73.980 5.226416
73.985 5.100652
73.990 5.059988
73.995 5.159681
74.000 4.904353
74.005 4.884398
74.010 4.787144
74.015 5.096906
74.020 5.813588
74.025 5.987856
74.030 6.029379
74.035 6.132688
74.040 6.3648
74.045 6.219691
74.050 5.911483
74.055 5.507374
74.060 5.430718
74.065 5.59615
74.070 5.742074
74.075 5.903013
74.080 6.07809
74.085 6.086032
74.090 6.09057
74.095 5.842
74.100 5.655899
74.105 5.470518
74.110 5.126016
74.115 4.810675
74.120 4.713416
74.125 4.519443
74.130 4.844358
74.135 4.644458
74.140 4.632945
74.145 4.671859
74.150 4.742524
74.155 4.84016
74.160 4.835049
74.165 4.566847
74.170 4.876936
74.175 4.979829
74.180 5.136302
74.185 4.958758
74.190 5.175025
74.195 5.294081
74.200 5.222187
74.205 5.347234
74.210 5.203694
74.215 5.095285
74.220 5.109192
74.225 5.187932
74.230 5.474641
74.235 5.565582
74.240 5.376407
74.245 5.630701
74.250 5.827361
74.255 5.683985
74.260 5.60141
74.265 5.335546
74.270 5.15038
74.275 4.887578
74.280 4.655436
74.285 4.39556
74.290 4.711318
74.295 4.803144
74.300 4.946946
74.305 4.826917
74.310 4.828432
74.315 4.62176
74.320 4.542809
74.325 4.114742
74.330 3.867335
74.335 3.815944
74.340 4.086129
74.345 4.557865
74.350 5.033901
74.355 5.008482
74.360 4.957736
74.365 5.071745
74.370 5.262779
74.375 5.287364
74.380 5.200939
74.385 5.464605
74.390 5.471358
74.395 5.552665
74.400 5.511344
74.405 5.379617
74.410 5.129683
74.415 4.609094
74.420 4.76224
74.425 5.028827
74.430 4.846576
74.435 4.808235
74.440 4.64224
74.445 4.744407
74.450 4.854136
74.455 4.667966
74.460 4.674632
74.465 4.786896
74.470 4.699495
74.475 4.721563
74.480 4.915099
74.485 5.399334
74.490 5.579511
74.495 5.596558
74.500 5.674474
74.505 5.724078
74.510 5.933854
74.515 5.715546
74.520 5.447083
74.525 5.431934
74.530 5.473533
74.535 5.298153
74.540 5.17243
74.545 5.153539
74.550 5.309798
74.555 5.114173
74.560 4.989362
74.565 4.80792
74.570 4.685999
74.575 4.867599
74.580 4.669791
74.585 4.692881
74.590 4.516143
74.595 4.613555
74.600 4.958737
74.605 5.314253
74.610 5.183463
74.615 4.858607
74.620 4.55854
74.625 4.641123
74.630 4.523791
74.635 4.294979
74.640 3.982898
74.645 4.310877
74.650 4.505502
74.655 4.608737
74.660 4.688774
74.665 4.786632
74.670 5.187573
74.675 5.12746
74.680 5.285906
74.685 5.786761
74.690 6.024701
74.695 6.176304
74.700 6.070887
74.705 5.793429
74.710 5.454222
74.715 5.005018
74.720 4.65126
74.725 4.534044
74.730 4.340653
74.735 4.372684
74.740 4.815022
74.745 5.307806
74.750 5.120987
74.755 4.761911
74.760 4.831059
74.765 5.087194
74.770 5.08636
74.775 4.729573
74.780 4.76117
74.785 4.999959
74.790 4.86153
74.795 4.656446
74.800 4.611111
74.805 4.58424
74.810 4.719276
74.815 4.702559
74.820 4.658782
74.825 5.057303
74.830 4.931815
74.835 4.780796
74.840 4.876488
74.845 4.974935
74.850 4.875693
74.855 4.976621
74.860 4.95124
74.865 4.959306
74.870 4.876915
74.875 4.727249
74.880 4.51306
74.885 4.64575
74.890 4.689299
74.895 4.708102
74.900 4.50371
74.905 4.496097
74.910 4.626532
74.915 4.984452
74.920 4.70511
74.925 4.483587
74.930 4.656329
74.935 5.11309
74.940 5.066125
74.945 5.055394
74.950 4.898148
74.955 4.957669
74.960 4.862154
74.965 4.967263
74.970 4.757126
74.975 4.880987
74.980 4.73765
74.985 4.856642
74.990 5.056198
74.995 4.889914
75.000 4.638703
