!@!!GADDS PLOTSO FILE: Chi integration type
!@!!Title/SampleName: map-c9
!@!!Comment: ?
!@!!User: Bruker Instrument Administrator
!@!!Site: University of Illinois Chicago
!@!!Frame: map-c9_01_000.gfrm
!@!!Wavelengths    1.54184   1.54056   1.54439
!@!!Frame angles: 2Theta: 65.000 Omega: 50.000 Phi: 0.000 Chi: 90.000
!@!!Integration range: 2Theta: 55.000 to 75.000  Gamma: -105.000 to -75.000
!@!!Integration method: bin normalized
!@!N
!@!SS
!@!M
!@!L 0.0 0.0 0.0 0.0
!@!XDegrees
!@!YCounts
55.000 4.013471
55.005 4.139556
55.010 4.183827
55.015 4.679819
55.020 4.844292
55.025 4.821077
55.030 4.636902
55.035 4.454291
55.040 4.350375
55.045 4.017639
55.050 3.788271
55.055 3.521562
55.060 3.657386
55.065 3.483116
55.070 3.529037
55.075 3.651133
55.080 3.607217
55.085 3.799332
55.090 4.235546
55.095 4.392341
55.100 4.780564
55.105 5.090963
55.110 5.270206
55.115 5.697207
55.120 5.490582
55.125 5.530737
55.130 5.354037
55.135 5.085429
55.140 4.808962
55.145 4.433941
55.150 3.922688
55.155 3.567144
55.160 3.289586
55.165 3.056391
55.170 3.023403
55.175 3.341068
55.180 3.55251
55.185 3.96017
55.190 4.30999
55.195 4.246176
55.200 4.553844
55.205 4.632026
55.210 4.353756
55.215 4.1816
55.220 4.000797
55.225 3.629831
55.230 3.666809
55.235 3.663552
55.240 3.927102
55.245 4.185462
55.250 4.221892
55.255 4.268536
55.260 4.532079
55.265 4.576734
55.270 4.572745
55.275 4.297391
55.280 4.055952
55.285 3.970631
55.290 4.076666
55.295 4.143332
55.300 3.869828
55.305 3.873011
55.310 3.965988
55.315 4.484481
55.320 4.486875
55.325 4.507226
55.330 4.49742
55.335 4.544603
55.340 4.520784
55.345 4.434521
55.350 4.257946
55.355 4.351835
55.360 4.284494
55.365 4.283705
55.370 4.315399
55.375 4.309118
55.380 4.501103
55.385 4.523862
55.390 4.227852
55.395 4.032705
55.400 4.022475
55.405 3.926139
55.410 3.815803
55.415 3.588797
55.420 3.738577
55.425 3.745272
55.430 3.800156
55.435 3.924238
55.440 4.001482
55.445 4.05615
55.450 4.107236
55.455 4.283179
55.460 4.696701
55.465 4.848386
55.470 4.889355
55.475 5.000076
55.480 5.010589
55.485 4.863694
55.490 4.396484
55.495 4.181293
55.500 3.925779
55.505 3.702698
55.510 3.468199
55.515 3.458307
55.520 3.669068
55.525 3.930248
55.530 4.264715
55.535 4.55917
55.540 4.817862
55.545 5.211108
55.550 5.218753
55.555 5.072464
55.560 4.884696
55.565 4.514672
55.570 4.736229
55.575 4.505899
55.580 4.187317
55.585 4.135923
55.590 4.440421
55.595 4.475809
55.600 4.382024
55.605 4.190243
55.610 4.049695
55.615 4.075501
55.620 4.022594
55.625 3.875575
55.630 3.740597
55.635 3.628458
55.640 3.915365
55.645 4.014861
55.650 3.789251
55.655 3.521745
55.660 4.061729
55.665 4.433145
55.670 4.364579
55.675 4.126225
55.680 4.578881
55.685 4.944164
55.690 5.508691
55.695 5.258238
55.700 5.179745
55.705 5.608937
55.710 5.985939
55.715 5.495977
55.720 4.901272
55.725 4.539956
55.730 4.542464
55.735 4.503697
55.740 4.149915
55.745 4.038675
55.750 4.641814
55.755 4.787425
55.760 4.874577
55.765 5.146204
55.770 5.179333
55.775 5.230443
55.780 4.879906
55.785 4.651621
55.790 5.101504
55.795 5.168964
55.800 4.819066
55.805 4.896294
55.810 5.111782
55.815 5.561857
55.820 5.825073
55.825 5.122779
55.830 4.830439
55.835 4.98252
55.840 5.170691
55.845 5.224227
55.850 4.814455
55.855 4.85183
55.860 5.077785
55.865 5.24813
55.870 5.271636
55.875 4.96935
55.880 4.9057
55.885 4.829995
55.890 4.764603
55.895 4.923327
55.900 4.54523
55.905 4.4112
55.910 4.307554
55.915 4.340921
55.920 4.319511
55.925 4.128398
55.930 4.058053
55.935 4.248882
55.940 4.269481
55.945 4.261851
55.950 4.37085
55.955 4.634591
55.960 5.167401
55.965 5.181304
55.970 5.044633
55.975 4.914395
55.980 4.928249
55.985 4.859574
55.990 4.567694
55.995 4.433886
56.000 4.409501
56.005 4.535593
56.010 4.409681
56.015 4.285983
56.020 4.274143
56.025 4.118281
56.030 3.990931
56.035 4.029566
56.040 3.843397
56.045 3.837838
56.050 4.001663
56.055 4.285917
56.060 4.51477
56.065 4.70146
56.070 4.809338
56.075 5.056479
56.080 5.338917
56.085 5.276423
56.090 5.054211
56.095 5.035173
56.100 5.237141
56.105 5.33889
56.110 5.613148
56.115 5.466393
56.120 5.391519
56.125 5.243714
56.130 5.029451
56.135 4.769111
56.140 4.687835
56.145 4.38335
56.150 4.413577
56.155 4.529911
56.160 4.731565
56.165 4.797777
56.170 4.780144
56.175 4.698102
56.180 4.891494
56.185 5.042238
56.190 5.022539
56.195 5.021706
56.200 5.132588
56.205 5.0601
56.210 5.017717
56.215 4.698043
56.220 4.457314
56.225 4.595585
56.230 4.45411
56.235 4.237761
56.240 4.158761
56.245 4.049422
56.250 4.055331
56.255 3.984169
56.260 3.654045
56.265 3.580123
56.270 3.805955
56.275 3.917393
56.280 4.248489
56.285 4.398287
56.290 4.566767
56.295 4.648866
56.300 4.733737
56.305 4.760548
56.310 4.873418
56.315 4.694663
56.320 4.61895
56.325 4.961839
56.330 5.228891
56.335 5.451271
56.340 5.523573
56.345 5.48755
56.350 5.633665
56.355 5.837854
56.360 5.699841
56.365 5.986513
56.370 5.748631
56.375 5.90926
56.380 5.821639
56.385 5.862426
56.390 5.483457
56.395 5.134196
56.400 4.552387
56.405 4.121253
56.410 3.992018
56.415 3.867389
56.420 3.609954
56.425 3.659568
56.430 3.798864
56.435 4.216841
56.440 4.427763
56.445 4.283358
56.450 4.32417
56.455 4.412867
56.460 4.46245
56.465 4.45233
56.470 4.516007
56.475 4.406726
56.480 4.716739
56.485 5.126069
56.490 5.22253
56.495 5.125969
56.500 5.103023
56.505 4.905506
56.510 4.996457
56.515 5.046704
56.520 4.721584
56.525 4.713523
56.530 4.850879
56.535 4.792174
56.540 4.94985
56.545 4.84879
56.550 4.670433
56.555 4.66503
56.560 4.905166
56.565 5.007156
56.570 4.979233
56.575 4.980206
56.580 5.264614
56.585 5.306904
56.590 5.376729
56.595 5.191292
56.600 5.498711
56.605 5.617083
56.610 5.364336
56.615 5.09567
56.620 4.918941
56.625 4.660738
56.630 4.356424
56.635 4.072997
56.640 3.867326
56.645 3.978679
56.650 4.449116
56.655 4.837012
56.660 4.925836
56.665 4.8385
56.670 4.981388
56.675 4.901648
56.680 4.793356
56.685 4.595525
56.690 4.362191
56.695 4.661051
56.700 4.886044
56.705 4.829329
56.710 4.722809
56.715 4.416001
56.720 4.002943
56.725 3.928112
56.730 3.787051
56.735 3.94645
56.740 4.156528
56.745 4.363073
56.750 4.521515
56.755 4.836864
56.760 5.369234
56.765 5.552595
56.770 5.459466
56.775 5.623708
56.780 5.468627
56.785 5.519459
56.790 5.557243
56.795 5.261981
56.800 4.969554
56.805 4.78984
56.810 4.710903
56.815 5.012269
56.820 4.788897
56.825 4.75818
56.830 4.832637
56.835 5.057648
56.840 4.983607
56.845 4.715804
56.850 4.810618
56.855 4.637662
56.860 4.514037
56.865 4.499206
56.870 4.419216
56.875 4.579034
56.880 5.003532
56.885 4.779055
56.890 4.830328
56.895 4.632877
56.900 4.599876
56.905 4.477952
56.910 4.491601
56.915 4.446257
56.920 4.674633
56.925 4.981065
56.930 5.040035
56.935 4.874717
56.940 4.930627
56.945 4.750044
56.950 4.856401
56.955 4.614222
56.960 4.366812
56.965 4.24456
56.970 4.504093
56.975 4.499675
56.980 4.355747
56.985 4.094031
56.990 4.326334
56.995 4.729774
57.000 4.975781
57.005 4.841628
57.010 4.971225
57.015 5.086511
57.020 5.105289
57.025 4.889236
57.030 4.547385
57.035 4.415335
57.040 4.602331
57.045 4.590209
57.050 4.635226
57.055 4.67428
57.060 4.856972
57.065 5.311183
57.070 5.258422
57.075 4.999814
57.080 4.711734
57.085 4.325958
57.090 4.468831
57.095 4.687046
57.100 4.671568
57.105 4.668705
57.110 4.872999
57.115 5.168753
57.120 5.65257
57.125 5.806001
57.130 5.653392
57.135 5.498162
57.140 5.486459
57.145 5.404514
57.150 5.502657
57.155 5.369954
57.160 4.909396
57.165 4.898777
57.170 4.804258
57.175 4.779378
57.180 4.932256
57.185 4.778484
57.190 4.778366
57.195 4.701064
57.200 4.523875
57.205 4.622306
57.210 4.437683
57.215 4.296298
57.220 4.525614
57.225 4.688468
57.230 5.053245
57.235 5.438294
57.240 5.720782
57.245 5.548677
57.250 5.403306
57.255 4.934084
57.260 4.713427
57.265 4.393447
57.270 4.311782
57.275 4.647304
57.280 4.686212
57.285 4.831439
57.290 5.041853
57.295 5.21318
57.300 5.233741
57.305 4.943278
57.310 4.735926
57.315 4.691249
57.320 4.742817
57.325 5.153838
57.330 5.004524
57.335 4.803774
57.340 4.626673
57.345 4.868318
57.350 5.286889
57.355 4.915238
57.360 4.388759
57.365 4.181006
57.370 4.334034
57.375 4.188314
57.380 4.017683
57.385 3.989035
57.390 4.483494
57.395 4.889828
57.400 5.327814
57.405 5.880811
57.410 6.099266
57.415 6.207752
57.420 6.164515
57.425 5.739215
57.430 5.428386
57.435 5.065671
57.440 4.826363
57.445 4.748286
57.450 4.562297
57.455 4.837606
57.460 4.94054
57.465 5.295753
57.470 5.377495
57.475 5.423767
57.480 5.399531
57.485 5.153183
57.490 4.706157
57.495 4.546921
57.500 4.780699
57.505 4.895116
57.510 4.909795
57.515 5.13219
57.520 5.2844
57.525 5.337816
57.530 5.31024
57.535 4.926661
57.540 5.039701
57.545 5.091741
57.550 5.091591
57.555 5.379769
57.560 5.474658
57.565 5.68281
57.570 5.885626
57.575 5.509605
57.580 5.36834
57.585 5.381186
57.590 5.422974
57.595 5.625446
57.600 5.498301
57.605 5.156757
57.610 5.081831
57.615 5.056429
57.620 4.84868
57.625 4.82412
57.630 4.706266
57.635 4.692595
57.640 4.988281
57.645 4.930039
57.650 4.815634
57.655 4.419962
57.660 4.12337
57.665 4.161913
57.670 4.108991
57.675 4.404011
57.680 4.646142
57.685 4.796551
57.690 5.109725
57.695 5.167734
57.700 5.256516
57.705 5.092164
57.710 4.939386
57.715 5.077333
57.720 5.099597
57.725 5.096252
57.730 4.99105
57.735 5.288197
57.740 5.626216
57.745 5.651138
57.750 5.629067
57.755 5.786499
57.760 6.172532
57.765 6.170625
57.770 6.028796
57.775 5.883322
57.780 5.651162
57.785 5.831595
57.790 5.776655
57.795 5.802773
57.800 5.682809
57.805 5.460061
57.810 5.760077
57.815 5.743205
57.820 5.918596
57.825 5.925475
57.830 6.183255
57.835 6.464512
57.840 6.587093
57.845 6.577626
57.850 6.401387
57.855 6.221701
57.860 6.314328
57.865 6.337479
57.870 6.584765
57.875 6.629116
57.880 6.907382
57.885 7.392389
57.890 7.557255
57.895 7.983299
57.900 7.842034
57.905 7.493301
57.910 7.526412
57.915 7.384857
57.920 7.64678
57.925 7.686859
57.930 7.176457
57.935 7.590025
57.940 8.433476
57.945 8.934135
57.950 9.191923
57.955 9.103962
57.960 9.030795
57.965 9.051349
57.970 8.831012
57.975 8.961179
57.980 8.773766
57.985 8.505478
57.990 8.811277
57.995 9.365464
58.000 9.885966
58.005 10.484297
58.010 11.143737
58.015 11.756209
58.020 12.246025
58.025 11.99142
58.030 12.127447
58.035 12.034799
58.040 12.197948
58.045 11.988749
58.050 12.379052
58.055 12.607956
58.060 12.618976
58.065 12.611187
58.070 12.668303
58.075 12.758919
58.080 12.721066
58.085 13.348591
58.090 13.912148
58.095 14.130965
58.100 14.564192
58.105 15.055217
58.110 15.420967
58.115 15.480629
58.120 14.628544
58.125 13.90035
58.130 14.054599
58.135 14.051222
58.140 13.793331
58.145 13.597835
58.150 13.231968
58.155 13.629121
58.160 14.190483
58.165 14.702744
58.170 14.394822
58.175 14.219738
58.180 14.12195
58.185 13.798874
58.190 13.657525
58.195 13.392438
58.200 12.756316
58.205 12.467204
58.210 12.294185
58.215 12.619411
58.220 12.494786
58.225 12.064723
58.230 12.962579
58.235 13.144277
58.240 13.14994
58.245 12.893124
58.250 12.223536
58.255 12.293558
58.260 12.013985
58.265 10.887932
58.270 10.705742
58.275 10.796827
58.280 10.846752
58.285 11.06128
58.290 11.745922
58.295 12.273917
58.300 12.379064
58.305 12.654584
58.310 12.440307
58.315 12.165085
58.320 12.099871
58.325 11.531236
58.330 10.574738
58.335 9.838211
58.340 8.889889
58.345 8.520012
58.350 8.286472
58.355 7.881852
58.360 7.402972
58.365 7.70198
58.370 8.10328
58.375 8.68789
58.380 8.89327
58.385 9.089818
58.390 9.02704
58.395 8.980534
58.400 8.684687
58.405 8.338395
58.410 8.028475
58.415 7.812961
58.420 7.203452
58.425 7.067134
58.430 7.255027
58.435 7.538255
58.440 7.356104
58.445 7.137484
58.450 7.105615
58.455 7.323336
58.460 7.074963
58.465 6.653178
58.470 6.502546
58.475 6.498766
58.480 6.348828
58.485 6.355915
58.490 6.436573
58.495 6.811211
58.500 6.74953
58.505 6.377781
58.510 6.40284
58.515 6.331966
58.520 6.160908
58.525 5.825963
58.530 5.331402
58.535 5.329558
58.540 5.586397
58.545 5.820018
58.550 5.998423
58.555 6.066471
58.560 6.176997
58.565 6.287126
58.570 6.52211
58.575 6.680122
58.580 6.808858
58.585 6.797569
58.590 6.644993
58.595 6.548912
58.600 6.241528
58.605 5.824625
58.610 5.624789
58.615 5.690203
58.620 5.828595
58.625 5.870463
58.630 6.229642
58.635 6.30821
58.640 6.293387
58.645 6.188141
58.650 5.904286
58.655 5.819638
58.660 5.62515
58.665 5.336893
58.670 5.536579
58.675 5.829747
58.680 5.791816
58.685 5.812844
58.690 5.909136
58.695 5.722583
58.700 5.583583
58.705 5.286538
58.710 4.99426
58.715 4.956458
58.720 4.624859
58.725 4.439474
58.730 4.505045
58.735 5.095478
58.740 5.426181
58.745 5.632274
58.750 5.582368
58.755 5.591786
58.760 5.586715
58.765 5.709996
58.770 5.457942
58.775 5.559823
58.780 5.335279
58.785 5.313247
58.790 5.392435
58.795 5.541529
58.800 5.761237
58.805 5.743638
58.810 5.636847
58.815 5.649425
58.820 5.79494
58.825 5.898917
58.830 6.135674
58.835 5.728569
58.840 5.337532
58.845 5.299248
58.850 5.169513
58.855 4.750318
58.860 4.42958
58.865 4.539135
58.870 4.747647
58.875 4.904674
58.880 4.776392
58.885 5.032286
58.890 5.491858
58.895 5.383564
58.900 5.067466
58.905 5.208443
58.910 5.092822
58.915 5.040735
58.920 4.792005
58.925 4.701804
58.930 5.14649
58.935 5.034058
58.940 4.945665
58.945 4.897888
58.950 5.194603
58.955 5.512801
58.960 5.394765
58.965 5.134065
58.970 5.043205
58.975 5.308632
58.980 5.246352
58.985 5.0779
58.990 5.058212
58.995 5.215221
59.000 5.15721
59.005 5.274414
59.010 5.472316
59.015 5.749
59.020 5.897316
59.025 5.977538
59.030 5.688138
59.035 5.737724
59.040 5.685675
59.045 5.166259
59.050 5.016044
59.055 4.663963
59.060 4.508218
59.065 4.885967
59.070 4.92968
59.075 4.825239
59.080 4.781134
59.085 4.731274
59.090 4.840568
59.095 4.781429
59.100 4.496674
59.105 4.349235
59.110 4.561543
59.115 4.918937
59.120 4.793619
59.125 4.918025
59.130 5.080636
59.135 5.330714
59.140 5.453737
59.145 5.18678
59.150 5.182938
59.155 5.705264
59.160 5.671951
59.165 5.581573
59.170 5.034275
59.175 4.921366
59.180 4.729427
59.185 4.568743
59.190 4.303938
59.195 4.266215
59.200 4.061478
59.205 4.171635
59.210 4.014529
59.215 4.248532
59.220 4.203946
59.225 4.043783
59.230 4.281705
59.235 4.779143
59.240 4.962171
59.245 5.221361
59.250 5.135905
59.255 4.937129
59.260 5.027698
59.265 5.007823
59.270 4.931769
59.275 4.926657
59.280 4.870049
59.285 4.866027
59.290 5.007825
59.295 4.825581
59.300 4.7738
59.305 4.757965
59.310 4.876532
59.315 4.97826
59.320 5.022289
59.325 5.37727
59.330 5.360957
59.335 5.307906
59.340 5.383979
59.345 5.508935
59.350 5.297473
59.355 5.066049
59.360 4.813076
59.365 4.873259
59.370 5.094109
59.375 5.192655
59.380 5.297182
59.385 5.506996
59.390 5.744526
59.395 5.758496
59.400 5.840438
59.405 5.949339
59.410 5.590469
59.415 5.55579
59.420 5.994319
59.425 5.882987
59.430 5.884522
59.435 5.797655
59.440 5.589599
59.445 5.960289
59.450 5.902636
59.455 5.735273
59.460 5.91106
59.465 5.950271
59.470 5.748108
59.475 5.532282
59.480 5.445358
59.485 5.284237
59.490 5.405746
59.495 5.370678
59.500 5.198752
59.505 5.012801
59.510 4.931707
59.515 4.700414
59.520 4.480466
59.525 4.07748
59.530 3.774089
59.535 4.10174
59.540 4.283246
59.545 4.134258
59.550 4.30617
59.555 4.401138
59.560 4.582022
59.565 4.863562
59.570 4.899404
59.575 5.097756
59.580 5.377037
59.585 5.356988
59.590 5.256541
59.595 5.120868
59.600 4.884044
59.605 4.905183
59.610 5.05145
59.615 5.046332
59.620 5.341955
59.625 5.382045
59.630 5.941819
59.635 6.029376
59.640 6.175166
59.645 6.133391
59.650 6.037961
59.655 5.887635
59.660 6.127959
59.665 5.944164
59.670 5.795048
59.675 5.62795
59.680 5.705851
59.685 5.782947
59.690 5.801239
59.695 5.754999
59.700 5.819334
59.705 5.865188
59.710 5.841544
59.715 6.012951
59.720 6.079202
59.725 6.040283
59.730 5.584628
59.735 5.549761
59.740 5.591259
59.745 5.474315
59.750 5.113307
59.755 5.152135
59.760 5.079995
59.765 5.082582
59.770 4.951993
59.775 5.294928
59.780 5.297919
59.785 5.375468
59.790 5.137295
59.795 5.346465
59.800 5.324203
59.805 5.086922
59.810 4.897079
59.815 4.77367
59.820 4.494695
59.825 4.65884
59.830 4.23329
59.835 4.00378
59.840 4.273064
59.845 4.149713
59.850 4.091028
59.855 4.578472
59.860 4.957465
59.865 5.499016
59.870 6.003824
59.875 5.760056
59.880 5.673543
59.885 5.805335
59.890 5.480939
59.895 5.079569
59.900 4.968597
59.905 4.983096
59.910 5.14011
59.915 5.240968
59.920 5.284128
59.925 5.170812
59.930 5.062447
59.935 4.929319
59.940 4.535225
59.945 4.263449
59.950 4.25214
59.955 4.33559
59.960 4.652606
59.965 4.686952
59.970 4.774693
59.975 5.154317
59.980 5.602247
59.985 5.706399
59.990 5.603198
59.995 5.301632
60.000 5.282931
60.005 5.184156
60.010 4.925552
60.015 4.556094
60.020 4.853825
60.025 5.034088
60.030 5.132622
60.035 5.348777
60.040 5.644592
60.045 6.342134
60.050 6.846271
60.055 6.296226
60.060 6.111072
60.065 6.310704
60.070 6.205814
60.075 5.781424
60.080 5.382281
60.085 5.076576
60.090 5.347513
60.095 5.461715
60.100 5.380855
60.105 5.505732
60.110 5.790683
60.115 5.937531
60.120 5.768596
60.125 5.343681
60.130 5.21657
60.135 5.197789
60.140 5.218742
60.145 5.033987
60.150 4.554953
60.155 4.565395
60.160 4.814902
60.165 4.750811
60.170 4.365761
60.175 4.243323
60.180 4.339748
60.185 4.585836
60.190 4.832756
60.195 4.858755
60.200 5.201358
60.205 5.697069
60.210 6.080831
60.215 6.142586
60.220 6.038026
60.225 6.236517
60.230 5.974543
60.235 5.926643
60.240 5.405947
60.245 5.098632
60.250 5.084689
60.255 5.034411
60.260 4.851624
60.265 4.840487
60.270 4.520489
60.275 4.926576
60.280 5.21815
60.285 5.210626
60.290 5.498456
60.295 5.565001
60.300 5.851122
60.305 6.240631
60.310 5.816332
60.315 5.561499
60.320 5.558107
60.325 5.530741
60.330 5.435103
60.335 5.571959
60.340 5.628113
60.345 5.843628
60.350 5.92003
60.355 5.92094
60.360 5.859264
60.365 5.942374
60.370 5.821495
60.375 5.672466
60.380 5.318347
60.385 5.012482
60.390 4.806489
60.395 4.637965
60.400 4.35059
60.405 3.957655
60.410 3.864358
60.415 4.270823
60.420 4.575932
60.425 4.788451
60.430 4.741622
60.435 4.622383
60.440 4.682516
60.445 4.853273
60.450 4.650862
60.455 4.509844
60.460 4.190629
60.465 4.168091
60.470 4.163845
60.475 4.408525
60.480 4.392344
60.485 4.659446
60.490 4.823589
60.495 5.372564
60.500 5.842606
60.505 6.272889
60.510 6.253838
60.515 6.337689
60.520 6.423095
60.525 6.380692
60.530 6.014459
60.535 5.578455
60.540 5.272771
60.545 5.177052
60.550 4.892655
60.555 4.887568
60.560 5.089339
60.565 5.031924
60.570 5.344421
60.575 5.447113
60.580 5.625262
60.585 5.517879
60.590 5.163005
60.595 5.221766
60.600 5.481974
60.605 5.472252
60.610 5.574852
60.615 5.192521
60.620 5.23373
60.625 5.455914
60.630 5.291077
60.635 5.310097
60.640 5.27486
60.645 5.15708
60.650 5.226791
60.655 5.267612
60.660 5.20908
60.665 5.081599
60.670 4.89648
60.675 4.795651
60.680 4.718853
60.685 5.003044
60.690 4.937227
60.695 4.964623
60.700 4.840996
60.705 4.955011
60.710 5.007073
60.715 5.428613
60.720 5.173424
60.725 5.057565
60.730 5.130346
60.735 4.989217
60.740 4.916201
60.745 4.954786
60.750 4.836696
60.755 4.895078
60.760 4.944694
60.765 4.896717
60.770 5.040699
60.775 5.057727
60.780 4.949381
60.785 4.894375
60.790 5.229887
60.795 5.163481
60.800 5.259403
60.805 4.984948
60.810 4.848453
60.815 4.827007
60.820 4.796712
60.825 4.428617
60.830 4.384588
60.835 4.647405
60.840 4.788521
60.845 4.842502
60.850 4.905708
60.855 5.096891
60.860 5.205835
60.865 5.319671
60.870 5.751949
60.875 6.198806
60.880 6.133574
60.885 6.207226
60.890 6.03538
60.895 6.054854
60.900 5.751467
60.905 5.541027
60.910 5.245146
60.915 5.310713
60.920 5.21704
60.925 5.069981
60.930 5.110417
60.935 5.016976
60.940 4.805753
60.945 4.905086
60.950 4.88233
60.955 4.97627
60.960 5.312926
60.965 5.335083
60.970 5.394801
60.975 5.302827
60.980 5.486433
60.985 5.579388
60.990 5.845017
60.995 5.949454
61.000 6.296932
61.005 6.477423
61.010 6.657098
61.015 6.33035
61.020 6.22386
61.025 5.794926
61.030 5.561425
61.035 5.337144
61.040 5.289601
61.045 4.989728
61.050 5.194225
61.055 5.469489
61.060 5.673624
61.065 5.619148
61.070 5.873549
61.075 5.892708
61.080 5.971909
61.085 5.632447
61.090 5.283677
61.095 5.08655
61.100 4.954705
61.105 4.779739
61.110 5.041257
61.115 5.14331
61.120 5.204723
61.125 5.071063
61.130 5.068882
61.135 5.059811
61.140 4.936334
61.145 4.443716
61.150 4.415881
61.155 4.578279
61.160 4.724869
61.165 4.806048
61.170 4.821346
61.175 4.762267
61.180 4.839207
61.185 5.025998
61.190 4.929744
61.195 5.070412
61.200 5.251323
61.205 5.156373
61.210 5.330843
61.215 5.546555
61.220 5.59303
61.225 5.658161
61.230 5.497155
61.235 5.387818
61.240 5.749868
61.245 5.622021
61.250 5.114373
61.255 5.043262
61.260 4.830672
61.265 4.701033
61.270 4.662837
61.275 4.402543
61.280 4.466419
61.285 4.84276
61.290 4.65036
61.295 4.975199
61.300 5.043245
61.305 5.193467
61.310 5.251377
61.315 5.228058
61.320 5.359235
61.325 5.516379
61.330 5.492472
61.335 5.414151
61.340 5.362868
61.345 5.333364
61.350 5.162089
61.355 4.9028
61.360 4.538452
61.365 4.617706
61.370 4.956094
61.375 5.097803
61.380 5.225525
61.385 5.488553
61.390 5.800645
61.395 6.17041
61.400 5.919335
61.405 5.897857
61.410 5.69182
61.415 5.420167
61.420 5.449914
61.425 5.431945
61.430 5.096636
61.435 5.17531
61.440 4.954072
61.445 4.97179
61.450 5.229166
61.455 5.045192
61.460 4.833663
61.465 4.820873
61.470 4.743486
61.475 4.70231
61.480 4.766362
61.485 4.783354
61.490 5.037178
61.495 5.090709
61.500 5.388676
61.505 5.328813
61.510 5.402635
61.515 5.565071
61.520 5.498771
61.525 5.265272
61.530 4.917094
61.535 4.758434
61.540 4.82036
61.545 4.769653
61.550 4.611175
61.555 4.153731
61.560 4.275038
61.565 4.884442
61.570 5.057704
61.575 5.122653
61.580 5.102201
61.585 4.950164
61.590 5.016963
61.595 5.149153
61.600 4.816701
61.605 4.607441
61.610 4.342753
61.615 4.253408
61.620 4.173966
61.625 4.424997
61.630 4.643642
61.635 4.783907
61.640 4.994139
61.645 5.275051
61.650 5.519349
61.655 5.709406
61.660 5.780836
61.665 5.601853
61.670 5.547736
61.675 5.51344
61.680 5.536759
61.685 5.590155
61.690 5.843129
61.695 5.826755
61.700 5.860644
61.705 6.239188
61.710 6.390269
61.715 6.330368
61.720 6.160215
61.725 5.894314
61.730 5.682663
61.735 5.917956
61.740 5.498413
61.745 5.255867
61.750 4.925547
61.755 4.704262
61.760 4.695276
61.765 4.513783
61.770 4.262999
61.775 4.383732
61.780 4.427336
61.785 4.462848
61.790 4.590488
61.795 4.817989
61.800 4.82979
61.805 4.957898
61.810 4.988942
61.815 5.265126
61.820 5.316648
61.825 5.383697
61.830 5.249289
61.835 5.147141
61.840 4.887113
61.845 4.870885
61.850 5.02532
61.855 5.006541
61.860 4.992433
61.865 5.371233
61.870 5.599504
61.875 5.673883
61.880 5.304171
61.885 4.927054
61.890 5.166323
61.895 5.446531
61.900 4.831651
61.905 4.661945
61.910 4.654255
61.915 4.814862
61.920 4.636311
61.925 4.492633
61.930 4.274777
61.935 4.675632
61.940 5.043735
61.945 5.143438
61.950 5.004189
61.955 5.201924
61.960 5.437829
61.965 5.394808
61.970 5.266732
61.975 5.109115
61.980 4.982524
61.985 4.887481
61.990 4.548831
61.995 4.380128
62.000 4.446844
62.005 4.363316
62.010 4.620144
62.015 4.67681
62.020 5.073703
62.025 5.578724
62.030 5.589337
62.035 5.542823
62.040 5.376671
62.045 4.856106
62.050 5.011832
62.055 4.760957
62.060 4.783551
62.065 4.530174
62.070 4.333537
62.075 4.48657
62.080 4.435797
62.085 4.38825
62.090 4.466889
62.095 4.37837
62.100 4.685599
62.105 4.823369
62.110 4.706246
62.115 4.753253
62.120 4.851442
62.125 4.954278
62.130 4.676729
62.135 4.592896
62.140 4.662172
62.145 4.501761
62.150 4.395516
62.155 4.238925
62.160 4.455232
62.165 4.508255
62.170 4.507385
62.175 4.538175
62.180 4.796848
62.185 5.048901
62.190 5.323675
62.195 5.307645
62.200 5.733065
62.205 5.979916
62.210 6.170928
62.215 6.381761
62.220 6.159298
62.225 5.786855
62.230 5.57474
62.235 4.981704
62.240 4.694087
62.245 4.425142
62.250 4.220211
62.255 4.436652
62.260 4.849432
62.265 4.988662
62.270 5.705623
62.275 6.003515
62.280 6.499456
62.285 6.513203
62.290 6.305216
62.295 6.102985
62.300 6.000433
62.305 5.576899
62.310 5.549899
62.315 5.22052
62.320 5.230275
62.325 5.508293
62.330 5.573665
62.335 5.451031
62.340 5.485865
62.345 5.407477
62.350 5.272918
62.355 5.130054
62.360 4.761381
62.365 4.740255
62.370 4.791989
62.375 5.120456
62.380 5.152431
62.385 5.252122
62.390 5.417286
62.395 5.431833
62.400 5.538297
62.405 5.233355
62.410 4.974998
62.415 4.758602
62.420 4.622614
62.425 4.610023
62.430 4.976209
62.435 5.336359
62.440 5.777254
62.445 5.967576
62.450 5.862778
62.455 6.00877
62.460 6.1133
62.465 6.141823
62.470 5.667089
62.475 5.343888
62.480 4.994183
62.485 5.438824
62.490 5.556418
62.495 5.605082
62.500 5.545971
62.505 5.620544
62.510 5.593185
62.515 5.918352
62.520 5.838221
62.525 5.599411
62.530 5.162694
62.535 4.737565
62.540 4.687916
62.545 4.706409
62.550 4.412636
62.555 4.207483
62.560 4.230347
62.565 4.619713
62.570 4.651483
62.575 4.553852
62.580 4.901416
62.585 4.948594
62.590 5.274189
62.595 5.399889
62.600 5.313799
62.605 5.08741
62.610 5.039043
62.615 4.921785
62.620 4.857566
62.625 4.33779
62.630 4.106809
62.635 4.231479
62.640 4.602827
62.645 4.759917
62.650 4.699742
62.655 5.0381
62.660 5.159869
62.665 5.43128
62.670 5.321232
62.675 5.120395
62.680 5.139536
62.685 5.224443
62.690 5.240183
62.695 5.358163
62.700 4.916727
62.705 5.155144
62.710 5.572771
62.715 5.551422
62.720 5.391283
62.725 5.104544
62.730 5.308003
62.735 5.671884
62.740 5.529305
62.745 5.008791
62.750 4.77751
62.755 4.961875
62.760 5.182028
62.765 5.157583
62.770 5.320486
62.775 5.464225
62.780 5.57228
62.785 5.418489
62.790 5.239971
62.795 4.853444
62.800 4.442127
62.805 4.230187
62.810 4.426496
62.815 4.518358
62.820 4.757123
62.825 4.968948
62.830 4.957608
62.835 5.099246
62.840 5.331006
62.845 5.380915
62.850 5.432055
62.855 5.37717
62.860 5.163418
62.865 5.455369
62.870 5.483495
62.875 5.090817
62.880 4.964372
62.885 5.089942
62.890 5.182828
62.895 5.394684
62.900 5.652742
62.905 5.456609
62.910 5.783026
62.915 5.810542
62.920 5.813308
62.925 6.21313
62.930 6.170512
62.935 6.199678
62.940 6.275753
62.945 5.85805
62.950 6.239431
62.955 6.362555
62.960 6.179119
62.965 6.157584
62.970 5.963545
62.975 6.487639
62.980 6.723371
62.985 6.452155
62.990 6.186843
62.995 6.096313
63.000 5.916279
63.005 5.754643
63.010 5.370912
63.015 5.39359
63.020 5.440088
63.025 5.535389
63.030 5.728696
63.035 5.491508
63.040 5.792394
63.045 5.858902
63.050 5.739026
63.055 5.339802
63.060 5.008005
63.065 4.720174
63.070 4.919346
63.075 4.826213
63.080 4.561616
63.085 4.777216
63.090 5.188897
63.095 5.216185
63.100 5.247431
63.105 4.880776
63.110 4.701537
63.115 4.988478
63.120 4.57412
63.125 4.328862
63.130 4.38784
63.135 4.719415
63.140 5.259175
63.145 5.509665
63.150 5.476855
63.155 5.619094
63.160 5.862533
63.165 5.966974
63.170 5.704598
63.175 5.339731
63.180 4.85925
63.185 4.966185
63.190 5.101149
63.195 5.084612
63.200 5.205497
63.205 5.134625
63.210 5.622942
63.215 5.994931
63.220 5.795571
63.225 5.892868
63.230 6.210064
63.235 6.034876
63.240 6.102128
63.245 6.366008
63.250 6.412729
63.255 6.541135
63.260 6.333062
63.265 5.99015
63.270 6.376856
63.275 6.183921
63.280 5.815913
63.285 5.866188
63.290 5.545892
63.295 5.278495
63.300 5.187691
63.305 5.124222
63.310 5.339605
63.315 5.368637
63.320 5.268851
63.325 5.773317
63.330 6.070508
63.335 6.314368
63.340 6.554785
63.345 6.38821
63.350 6.187274
63.355 6.263036
63.360 6.212197
63.365 5.958982
63.370 5.693722
63.375 5.407391
63.380 5.607112
63.385 5.841286
63.390 5.784564
63.395 5.735617
63.400 6.203586
63.405 6.461259
63.410 6.263134
63.415 5.980586
63.420 5.787111
63.425 6.150168
63.430 6.424821
63.435 6.338805
63.440 6.186522
63.445 6.768802
63.450 7.266671
63.455 7.508677
63.460 7.327588
63.465 7.169862
63.470 7.212552
63.475 7.612336
63.480 7.474459
63.485 7.439009
63.490 7.367642
63.495 7.497228
63.500 7.939783
63.505 8.104656
63.510 7.980067
63.515 8.302559
63.520 8.430511
63.525 8.55722
63.530 8.70507
63.535 8.289069
63.540 8.179267
63.545 8.081963
63.550 8.018948
63.555 8.169215
63.560 8.179349
63.565 8.089204
63.570 8.446804
63.575 9.110913
63.580 9.630717
63.585 9.614878
63.590 9.758928
63.595 9.932
63.600 10.44502
63.605 10.424015
63.610 10.291351
63.615 10.369373
63.620 10.523107
63.625 10.375329
63.630 10.33932
63.635 10.204
63.640 10.623136
63.645 10.9452
63.650 10.922057
63.655 11.519396
63.660 12.173295
63.665 12.625279
63.670 13.135777
63.675 13.10441
63.680 13.472258
63.685 14.188345
63.690 14.876069
63.695 15.208965
63.700 15.757998
63.705 16.00462
63.710 17.123222
63.715 18.306631
63.720 18.755695
63.725 18.817818
63.730 19.416687
63.735 19.823662
63.740 20.142895
63.745 19.535095
63.750 19.279495
63.755 20.612009
63.760 21.882097
63.765 22.523617
63.770 23.629869
63.775 24.320488
63.780 26.085617
63.785 27.624136
63.790 28.022196
63.795 27.939272
63.800 28.78208
63.805 28.945681
63.810 29.329819
63.815 29.031557
63.820 29.932217
63.825 30.211859
63.830 30.89282
63.835 30.656984
63.840 30.797915
63.845 30.382895
63.850 30.291182
63.855 30.140354
63.860 29.78159
63.865 29.536808
63.870 29.360107
63.875 29.027245
63.880 29.129158
63.885 29.366854
63.890 29.307119
63.895 29.260328
63.900 28.828169
63.905 28.547466
63.910 29.006544
63.915 28.860445
63.920 28.084469
63.925 27.583466
63.930 27.416449
63.935 26.865044
63.940 26.169794
63.945 25.855
63.950 26.265913
63.955 26.335453
63.960 26.337559
63.965 26.42588
63.970 26.458263
63.975 26.442682
63.980 26.41995
63.985 26.631392
63.990 26.254509
63.995 24.649597
64.000 24.001312
64.005 24.35453
64.010 24.791784
64.015 23.769297
64.020 22.616402
64.025 22.322573
64.030 23.302439
64.035 22.696041
64.040 21.893353
64.045 21.480988
64.050 20.968529
64.055 20.974882
64.060 20.678221
64.065 19.30612
64.070 19.006771
64.075 18.557976
64.080 18.053249
64.085 17.842291
64.090 16.981155
64.095 15.995833
64.100 15.4012
64.105 14.682693
64.110 14.045318
64.115 13.638578
64.120 13.416967
64.125 13.497888
64.130 13.984876
64.135 13.919973
64.140 14.044372
64.145 13.732651
64.150 13.327835
64.155 13.611201
64.160 13.345807
64.165 13.196315
64.170 13.4632
64.175 13.605724
64.180 13.61043
64.185 13.114008
64.190 12.324386
64.195 11.723459
64.200 10.766234
64.205 10.093197
64.210 10.131699
64.215 10.422151
64.220 10.578628
64.225 10.459914
64.230 10.553988
64.235 10.739118
64.240 10.571414
64.245 10.195174
64.250 10.117871
64.255 9.798312
64.260 9.77408
64.265 9.992992
64.270 9.828156
64.275 9.812729
64.280 8.929523
64.285 8.203614
64.290 8.012878
64.295 7.575698
64.300 7.261176
64.305 7.16679
64.310 7.080643
64.315 7.025206
64.320 7.144887
64.325 7.527669
64.330 7.716466
64.335 7.386957
64.340 7.071157
64.345 6.47084
64.350 6.298639
64.355 6.304333
64.360 6.177346
64.365 6.28277
64.370 6.712506
64.375 6.865744
64.380 6.998849
64.385 7.421857
64.390 7.556549
64.395 7.29257
64.400 6.8786
64.405 6.315777
64.410 6.094672
64.415 6.466253
64.420 5.913858
64.425 5.582246
64.430 5.616376
64.435 5.796072
64.440 6.049293
64.445 6.112791
64.450 6.242985
64.455 6.811524
64.460 7.007494
64.465 7.094226
64.470 7.258382
64.475 7.161645
64.480 7.015594
64.485 6.552443
64.490 6.280572
64.495 6.332502
64.500 6.127648
64.505 5.96002
64.510 5.896601
64.515 5.891284
64.520 6.240266
64.525 6.278515
64.530 5.995234
64.535 5.883599
64.540 5.938406
64.545 5.904275
64.550 5.735659
64.555 5.317011
64.560 5.23959
64.565 5.538707
64.570 5.749044
64.575 5.64752
64.580 5.513293
64.585 5.561623
64.590 5.955703
64.595 6.037567
64.600 5.827243
64.605 6.039776
64.610 6.513689
64.615 6.930026
64.620 6.712919
64.625 6.261113
64.630 5.804736
64.635 5.728962
64.640 5.540514
64.645 5.439909
64.650 5.270314
64.655 5.372904
64.660 5.686981
64.665 6.124195
64.670 6.073246
64.675 5.805007
64.680 5.589012
64.685 5.712187
64.690 5.821779
64.695 6.149648
64.700 6.206494
64.705 6.570446
64.710 6.779503
64.715 6.686098
64.720 6.648656
64.725 6.571943
64.730 6.321024
64.735 6.517346
64.740 6.29234
64.745 6.070559
64.750 6.073951
64.755 5.903533
64.760 6.04814
64.765 5.837116
64.770 5.301416
64.775 5.294578
64.780 5.628945
64.785 6.111992
64.790 6.330431
64.795 6.15555
64.800 6.137463
64.805 6.373625
64.810 6.60364
64.815 6.504751
64.820 6.249176
64.825 6.042518
64.830 6.004241
64.835 5.886329
64.840 6.022723
64.845 5.799948
64.850 5.972963
64.855 5.815095
64.860 5.536528
64.865 5.133718
64.870 5.121762
64.875 4.85503
64.880 4.816689
64.885 4.5507
64.890 4.623479
64.895 5.011169
64.900 5.575605
64.905 5.825141
64.910 6.306726
64.915 6.5904
64.920 6.687179
64.925 6.666037
64.930 6.540043
64.935 6.157454
64.940 6.035645
64.945 5.529792
64.950 5.349965
64.955 4.979173
64.960 4.783513
64.965 4.730766
64.970 4.933691
64.975 4.992033
64.980 5.337613
64.985 5.512043
64.990 5.815044
64.995 6.212714
65.000 6.346931
65.005 6.488161
65.010 6.554134
65.015 6.099345
65.020 6.22514
65.025 6.18786
65.030 5.885623
65.035 5.836178
65.040 5.633744
65.045 5.609746
65.050 5.890281
65.055 5.439973
65.060 5.431223
65.065 5.520865
65.070 5.697453
65.075 5.629509
65.080 5.315856
65.085 5.252227
65.090 5.228064
65.095 5.396729
65.100 5.30297
65.105 5.011399
65.110 5.155474
65.115 5.348176
65.120 5.333566
65.125 5.355571
65.130 5.095622
65.135 5.186003
65.140 5.43537
65.145 5.56415
65.150 5.432234
65.155 5.446325
65.160 5.265883
65.165 5.12259
65.170 4.975791
65.175 4.909351
65.180 4.810836
65.185 4.772339
65.190 4.85747
65.195 5.224846
65.200 5.192376
65.205 5.21534
65.210 4.958819
65.215 5.010694
65.220 4.910213
65.225 5.19252
65.230 5.058366
65.235 5.151754
65.240 5.288528
65.245 5.524827
65.250 5.507836
65.255 5.658115
65.260 5.546435
65.265 5.594103
65.270 5.629205
65.275 5.438818
65.280 5.399156
65.285 5.404034
65.290 5.546761
65.295 5.745395
65.300 5.923971
65.305 6.089044
65.310 6.119228
65.315 6.065894
65.320 6.443995
65.325 6.200859
65.330 5.935587
65.335 5.547145
65.340 5.340714
65.345 5.437676
65.350 5.101567
65.355 4.605855
65.360 4.440032
65.365 4.277814
65.370 4.884217
65.375 5.170912
65.380 5.080313
65.385 5.252051
65.390 5.228569
65.395 5.570007
65.400 5.778884
65.405 5.535013
65.410 5.384343
65.415 5.492956
65.420 5.953942
65.425 6.087149
65.430 5.98062
65.435 5.668302
65.440 5.342544
65.445 5.135776
65.450 4.914907
65.455 4.610067
65.460 4.838618
65.465 5.180538
65.470 5.381638
65.475 5.568139
65.480 5.68328
65.485 5.886497
65.490 5.950544
65.495 5.69557
65.500 5.803767
65.505 6.004975
65.510 5.785643
65.515 5.692744
65.520 5.61826
65.525 5.50063
65.530 5.524717
65.535 5.246067
65.540 5.417441
65.545 5.776258
65.550 5.87557
65.555 5.872296
65.560 5.800368
65.565 6.008527
65.570 5.533048
65.575 5.447493
65.580 5.286713
65.585 5.081425
65.590 5.195653
65.595 5.525525
65.600 5.472933
65.605 5.681332
65.610 5.547449
65.615 5.642961
65.620 6.017154
65.625 5.920627
65.630 5.892235
65.635 5.704865
65.640 5.615022
65.645 5.798356
65.650 5.876583
65.655 5.897185
65.660 6.273752
65.665 6.432656
65.670 6.735004
65.675 6.554008
65.680 6.352174
65.685 6.365308
65.690 6.119027
65.695 5.841756
65.700 5.123289
65.705 4.798398
65.710 5.00438
65.715 4.926795
65.720 4.654398
65.725 4.435054
65.730 4.295461
65.735 4.535096
65.740 4.844997
65.745 4.757361
65.750 4.615257
65.755 4.72882
65.760 4.79939
65.765 5.163662
65.770 5.031247
65.775 4.790811
65.780 4.894502
65.785 4.872087
65.790 4.995659
65.795 5.306353
65.800 5.150471
65.805 5.299811
65.810 5.422277
65.815 5.390212
65.820 5.575998
65.825 5.513216
65.830 5.358861
65.835 5.280875
65.840 5.265515
65.845 5.094266
65.850 5.648197
65.855 5.876895
65.860 5.868642
65.865 5.915186
65.870 6.054805
65.875 6.083277
65.880 6.238831
65.885 5.782427
65.890 5.632559
65.895 5.5939
65.900 5.62367
65.905 5.591741
65.910 5.554927
65.915 5.725912
65.920 5.811984
65.925 5.680032
65.930 5.647067
65.935 5.844224
65.940 6.058234
65.945 5.946441
65.950 5.923952
65.955 6.112531
65.960 6.334758
65.965 6.715013
65.970 6.497665
65.975 6.467568
65.980 6.534161
65.985 6.341455
65.990 6.106967
65.995 6.128724
66.000 5.843298
66.005 5.597279
66.010 5.21537
66.015 5.392069
66.020 5.386719
66.025 5.699156
66.030 5.774041
66.035 5.770669
66.040 5.863018
66.045 6.090926
66.050 6.283102
66.055 6.105471
66.060 5.829365
66.065 5.813478
66.070 5.93471
66.075 5.858206
66.080 5.80485
66.085 5.684454
66.090 5.782672
66.095 5.787505
66.100 5.356478
66.105 5.20681
66.110 5.145462
66.115 5.252474
66.120 5.285057
66.125 5.440895
66.130 5.250345
66.135 5.473674
66.140 5.322717
66.145 5.427258
66.150 5.30945
66.155 5.20576
66.160 5.304614
66.165 5.716208
66.170 5.975793
66.175 5.977658
66.180 5.913703
66.185 5.731447
66.190 5.366671
66.195 5.028106
66.200 4.684113
66.205 4.353834
66.210 4.312834
66.215 4.146902
66.220 3.845022
66.225 4.009058
66.230 4.221606
66.235 4.607384
66.240 4.701134
66.245 4.783458
66.250 5.071901
66.255 5.313513
66.260 5.330234
66.265 5.375423
66.270 5.121086
66.275 5.261583
66.280 5.431563
66.285 5.581769
66.290 5.623104
66.295 5.804555
66.300 5.922571
66.305 5.815597
66.310 5.675347
66.315 5.544556
66.320 5.355218
66.325 5.502729
66.330 5.601083
66.335 5.561533
66.340 5.444708
66.345 5.565896
66.350 5.697577
66.355 5.895628
66.360 6.000103
66.365 5.788484
66.370 5.719656
66.375 6.026269
66.380 6.145343
66.385 5.816651
66.390 5.881323
66.395 5.610364
66.400 5.58769
66.405 5.454997
66.410 5.199148
66.415 4.923798
66.420 5.261468
66.425 5.255585
66.430 4.960271
66.435 5.142889
66.440 5.250168
66.445 5.56644
66.450 5.71577
66.455 5.686781
66.460 5.929266
66.465 6.488166
66.470 6.425251
66.475 6.565397
66.480 6.495968
66.485 6.661911
66.490 6.663723
66.495 6.4157
66.500 6.187095
66.505 5.844173
66.510 5.737865
66.515 5.819033
66.520 5.704672
66.525 5.652118
66.530 5.821899
66.535 5.922358
66.540 6.411921
66.545 6.290493
66.550 6.301922
66.555 6.031769
66.560 5.651785
66.565 5.556792
66.570 5.79796
66.575 5.548635
66.580 5.848536
66.585 5.780577
66.590 5.980036
66.595 6.566485
66.600 6.702178
66.605 6.205469
66.610 6.329942
66.615 6.023336
66.620 6.057556
66.625 6.271274
66.630 5.799916
66.635 5.629035
66.640 5.707515
66.645 5.406923
66.650 5.472786
66.655 5.13939
66.660 4.832129
66.665 4.957488
66.670 5.17436
66.675 5.052961
66.680 5.063258
66.685 5.072774
66.690 5.325702
66.695 5.256662
66.700 5.040225
66.705 5.132244
66.710 5.243227
66.715 5.302901
66.720 5.56015
66.725 5.591731
66.730 5.696219
66.735 5.642703
66.740 5.603779
66.745 5.857254
66.750 6.058555
66.755 5.538519
66.760 5.438014
66.765 5.471683
66.770 5.870615
66.775 5.863678
66.780 5.769298
66.785 5.756793
66.790 5.788646
66.795 5.777264
66.800 5.781276
66.805 5.530542
66.810 5.688527
66.815 5.637018
66.820 5.667704
66.825 5.996262
66.830 6.177484
66.835 6.329333
66.840 6.550745
66.845 6.454304
66.850 6.635249
66.855 6.698649
66.860 6.63192
66.865 6.826069
66.870 6.939228
66.875 6.629457
66.880 6.574363
66.885 6.596454
66.890 6.67837
66.895 6.740088
66.900 6.454784
66.905 6.519001
66.910 6.989425
66.915 7.307412
66.920 7.670366
66.925 7.67422
66.930 7.806766
66.935 8.065764
66.940 7.608169
66.945 7.210207
66.950 6.938839
66.955 6.677666
66.960 6.96221
66.965 7.003394
66.970 6.909921
66.975 7.113166
66.980 7.731866
66.985 8.122041
66.990 8.127382
66.995 8.233947
67.000 8.466709
67.005 8.705834
67.010 8.974374
67.015 9.12224
67.020 10.430121
67.025 11.110544
67.030 11.035811
67.035 11.200493
67.040 11.967058
67.045 12.27549
67.050 12.337483
67.055 11.853449
67.060 11.840343
67.065 12.346502
67.070 12.862071
67.075 12.719043
67.080 13.040172
67.085 13.393956
67.090 13.563395
67.095 14.233368
67.100 14.56645
67.105 14.83065
67.110 14.68032
67.115 14.821893
67.120 14.786839
67.125 15.142588
67.130 15.285469
67.135 15.884998
67.140 16.293673
67.145 16.814053
67.150 16.912136
67.155 17.102716
67.160 16.911413
67.165 17.11623
67.170 16.611536
67.175 16.602119
67.180 16.677248
67.185 16.58699
67.190 16.180544
67.195 16.332983
67.200 16.090471
67.205 15.968874
67.210 16.100967
67.215 16.089306
67.220 16.003592
67.225 16.321026
67.230 15.942746
67.235 16.02491
67.240 16.281921
67.245 15.859918
67.250 15.950431
67.255 16.388542
67.260 16.288988
67.265 16.138554
67.270 16.170929
67.275 15.799501
67.280 15.224769
67.285 15.004903
67.290 14.335048
67.295 14.23514
67.300 13.922929
67.305 13.776037
67.310 13.886764
67.315 13.799175
67.320 13.466805
67.325 13.535912
67.330 13.385441
67.335 13.72253
67.340 13.69286
67.345 13.793562
67.350 13.775844
67.355 13.590505
67.360 13.44831
67.365 13.222825
67.370 12.473637
67.375 12.044944
67.380 11.332134
67.385 11.486395
67.390 11.872064
67.395 11.947992
67.400 11.798062
67.405 11.880486
67.410 12.127721
67.415 12.102987
67.420 11.836253
67.425 11.392106
67.430 10.94366
67.435 11.065324
67.440 10.69449
67.445 10.096281
67.450 10.243016
67.455 10.339614
67.460 9.965899
67.465 9.939012
67.470 9.467013
67.475 9.320174
67.480 9.141618
67.485 8.623644
67.490 8.506387
67.495 8.570185
67.500 8.527799
67.505 8.465359
67.510 8.011773
67.515 7.900696
67.520 7.710503
67.525 7.131485
67.530 6.859284
67.535 6.838784
67.540 6.773875
67.545 6.83035
67.550 6.834909
67.555 7.215493
67.560 7.545275
67.565 7.77291
67.570 7.916325
67.575 7.968982
67.580 7.978878
67.585 7.868906
67.590 8.057434
67.595 8.09271
67.600 7.546362
67.605 7.217425
67.610 7.288543
67.615 7.12707
67.620 6.974016
67.625 6.228044
67.630 6.211602
67.635 6.431666
67.640 6.68948
67.645 6.5939
67.650 6.612998
67.655 6.699722
67.660 6.752468
67.665 6.931601
67.670 6.905798
67.675 6.40812
67.680 6.82142
67.685 6.997365
67.690 6.77396
67.695 6.642341
67.700 6.432041
67.705 6.356853
67.710 6.431656
67.715 5.352674
67.720 5.051497
67.725 5.089992
67.730 5.120944
67.735 5.36775
67.740 5.879012
67.745 6.06214
67.750 6.484558
67.755 6.358656
67.760 6.375453
67.765 6.322033
67.770 6.16725
67.775 5.602591
67.780 5.679241
67.785 5.700663
67.790 5.786002
67.795 5.83073
67.800 5.94709
67.805 5.657485
67.810 5.690058
67.815 5.461396
67.820 5.62072
67.825 5.981762
67.830 6.129031
67.835 6.090795
67.840 6.026125
67.845 6.111758
67.850 6.164376
67.855 5.882582
67.860 5.591955
67.865 5.388083
67.870 5.206197
67.875 5.236896
67.880 5.130349
67.885 5.253573
67.890 5.137899
67.895 5.15129
67.900 5.665033
67.905 6.074598
67.910 6.185801
67.915 6.070734
67.920 5.987008
67.925 6.280762
67.930 6.120574
67.935 5.859488
67.940 5.534195
67.945 5.514747
67.950 5.809766
67.955 5.648948
67.960 5.678683
67.965 6.399147
67.970 6.412296
67.975 6.376188
67.980 6.134815
67.985 5.948479
67.990 6.18959
67.995 5.946904
68.000 5.666368
68.005 5.562121
68.010 5.800555
68.015 6.210088
68.020 6.086594
68.025 5.976919
68.030 5.631298
68.035 5.265974
68.040 5.131573
68.045 5.159463
68.050 5.041502
68.055 5.031449
68.060 5.058218
68.065 5.266367
68.070 5.394832
68.075 5.422904
68.080 5.357834
68.085 5.313893
68.090 5.212303
68.095 5.313191
68.100 5.271696
68.105 5.296139
68.110 5.329168
68.115 5.470089
68.120 5.567007
68.125 5.785399
68.130 5.572044
68.135 5.641033
68.140 5.52784
68.145 5.689287
68.150 5.573908
68.155 5.636547
68.160 5.56542
68.165 5.598447
68.170 5.613748
68.175 6.007448
68.180 5.977848
68.185 6.105061
68.190 5.906116
68.195 5.532398
68.200 5.506183
68.205 6.015075
68.210 5.81292
68.215 5.853146
68.220 6.054034
68.225 6.271348
68.230 6.738874
68.235 6.532862
68.240 5.99092
68.245 5.92459
68.250 5.821122
68.255 5.396145
68.260 5.098979
68.265 5.121361
68.270 5.146535
68.275 5.133811
68.280 5.049858
68.285 4.971899
68.290 4.971141
68.295 5.066196
68.300 5.072957
68.305 5.271783
68.310 5.281757
68.315 5.39627
68.320 5.412634
68.325 5.546817
68.330 5.749629
68.335 5.88238
68.340 6.014761
68.345 5.877653
68.350 5.832591
68.355 5.830916
68.360 5.888127
68.365 5.460631
68.370 5.055946
68.375 4.876463
68.380 5.085198
68.385 5.035758
68.390 5.248777
68.395 5.395941
68.400 5.640204
68.405 5.680045
68.410 5.399827
68.415 5.286772
68.420 5.498039
68.425 5.322821
68.430 5.009793
68.435 5.094603
68.440 5.407373
68.445 5.619218
68.450 5.387146
68.455 5.16579
68.460 5.077261
68.465 5.312165
68.470 5.155587
68.475 5.018008
68.480 4.979797
68.485 5.180462
68.490 5.190754
68.495 5.124487
68.500 5.0172
68.505 4.880838
68.510 4.605337
68.515 4.653911
68.520 4.460424
68.525 4.546085
68.530 4.679731
68.535 5.204977
68.540 5.343775
68.545 5.492235
68.550 5.546967
68.555 5.447581
68.560 5.310594
68.565 5.287847
68.570 4.949
68.575 5.077837
68.580 5.226389
68.585 5.231501
68.590 5.473124
68.595 5.530397
68.600 5.456484
68.605 5.465292
68.610 5.605334
68.615 5.721379
68.620 5.777957
68.625 5.675207
68.630 5.725616
68.635 6.004159
68.640 5.924875
68.645 5.684273
68.650 5.404963
68.655 5.481893
68.660 5.502939
68.665 5.456349
68.670 5.081127
68.675 4.953659
68.680 5.165257
68.685 5.348181
68.690 5.11587
68.695 4.827363
68.700 4.804342
68.705 5.234595
68.710 5.471443
68.715 5.443356
68.720 5.708502
68.725 6.074558
68.730 6.313531
68.735 6.37141
68.740 6.026226
68.745 5.875371
68.750 5.859131
68.755 5.383489
68.760 4.928939
68.765 4.737244
68.770 4.513903
68.775 4.770911
68.780 4.752842
68.785 4.640049
68.790 4.770401
68.795 5.208778
68.800 5.619909
68.805 5.789075
68.810 5.536588
68.815 5.543619
68.820 5.60575
68.825 5.998881
68.830 6.016882
68.835 5.686127
68.840 5.447892
68.845 5.364058
68.850 5.331886
68.855 5.25309
68.860 4.710161
68.865 4.591896
68.870 4.66821
68.875 4.705808
68.880 5.009417
68.885 5.138062
68.890 5.332357
68.895 5.643034
68.900 5.922909
68.905 5.958374
68.910 6.210865
68.915 5.910714
68.920 5.942259
68.925 5.848402
68.930 5.486109
68.935 5.125273
68.940 4.922758
68.945 4.647344
68.950 4.552767
68.955 4.445578
68.960 4.26553
68.965 4.711708
68.970 5.243448
68.975 5.5284
68.980 5.587063
68.985 5.509706
68.990 5.629903
68.995 5.540127
69.000 4.970736
69.005 4.698083
69.010 4.693945
69.015 4.808974
69.020 4.912285
69.025 4.87907
69.030 5.228897
69.035 5.535089
69.040 5.484643
69.045 5.460113
69.050 5.536426
69.055 5.783064
69.060 5.888232
69.065 5.87438
69.070 5.84112
69.075 5.951479
69.080 5.892203
69.085 5.576751
69.090 5.395271
69.095 5.351942
69.100 4.988688
69.105 5.142766
69.110 4.860332
69.115 4.866298
69.120 4.857144
69.125 4.831381
69.130 4.886114
69.135 5.351516
69.140 4.992834
69.145 5.182258
69.150 5.390555
69.155 5.58453
69.160 5.511689
69.165 5.402327
69.170 5.457239
69.175 5.72157
69.180 5.537637
69.185 5.194557
69.190 5.077672
69.195 4.992307
69.200 4.865035
69.205 4.65436
69.210 4.584574
69.215 5.182291
69.220 5.282929
69.225 4.977726
69.230 5.007088
69.235 4.751874
69.240 4.657151
69.245 4.678987
69.250 4.198843
69.255 4.541628
69.260 4.865899
69.265 5.096348
69.270 5.185087
69.275 5.059753
69.280 4.98645
69.285 5.069938
69.290 4.958641
69.295 5.047613
69.300 4.95178
69.305 5.045613
69.310 5.156692
69.315 5.05169
69.320 4.686755
69.325 4.650101
69.330 4.571023
69.335 4.635723
69.340 4.862204
69.345 4.865417
69.350 4.882711
69.355 5.306842
69.360 5.290422
69.365 5.294113
69.370 5.373766
69.375 5.257197
69.380 5.538699
69.385 5.737675
69.390 5.285061
69.395 5.017696
69.400 5.042671
69.405 4.831922
69.410 4.762178
69.415 4.394555
69.420 4.24616
69.425 4.299821
69.430 4.515654
69.435 4.279324
69.440 4.325123
69.445 4.368377
69.450 4.366091
69.455 4.329498
69.460 4.512866
69.465 4.554416
69.470 4.586216
69.475 4.904685
69.480 5.200023
69.485 5.362096
69.490 5.564559
69.495 5.572628
69.500 5.726223
69.505 5.737895
69.510 5.600852
69.515 5.393217
69.520 5.985548
69.525 6.1073
69.530 6.295427
69.535 6.128282
69.540 6.216582
69.545 6.058648
69.550 5.791271
69.555 5.163512
69.560 4.722215
69.565 4.350266
69.570 4.446118
69.575 4.291305
69.580 4.032073
69.585 4.241299
69.590 4.330852
69.595 4.708787
69.600 5.149273
69.605 5.329701
69.610 5.363179
69.615 5.619134
69.620 5.678469
69.625 5.694423
69.630 5.60502
69.635 5.570357
69.640 5.347045
69.645 5.480034
69.650 5.705
69.655 5.736058
69.660 6.038396
69.665 6.090789
69.670 5.865595
69.675 5.96327
69.680 5.820524
69.685 5.523222
69.690 5.332733
69.695 5.246973
69.700 4.998309
69.705 5.10073
69.710 5.438326
69.715 5.759397
69.720 5.810728
69.725 5.794934
69.730 6.01991
69.735 6.41491
69.740 6.317821
69.745 5.952156
69.750 5.655329
69.755 5.847311
69.760 5.65037
69.765 5.107996
69.770 4.999447
69.775 5.361306
69.780 5.586818
69.785 5.605171
69.790 5.550462
69.795 5.947749
69.800 5.815902
69.805 5.592581
69.810 5.376165
69.815 5.247068
69.820 5.122322
69.825 4.936098
69.830 4.96734
69.835 5.255418
69.840 5.303322
69.845 5.211522
69.850 5.452433
69.855 5.787508
69.860 5.768487
69.865 5.800085
69.870 5.960804
69.875 6.070997
69.880 6.080973
69.885 5.757268
69.890 5.179536
69.895 4.847369
69.900 4.729167
69.905 4.506909
69.910 4.512967
69.915 4.235855
69.920 4.454181
69.925 4.752721
69.930 4.841314
69.935 4.528932
69.940 4.74029
69.945 4.946759
69.950 4.957369
69.955 4.91418
69.960 4.748188
69.965 4.883675
69.970 4.752015
69.975 4.511829
69.980 4.474612
69.985 4.49627
69.990 4.542766
69.995 4.664182
70.000 4.645534
70.005 4.98022
70.010 5.353369
70.015 5.282649
70.020 5.425959
70.025 5.445971
70.030 5.428055
70.035 5.319402
70.040 5.359879
70.045 5.204394
70.050 5.642867
70.055 5.648361
70.060 5.486929
70.065 5.567729
70.070 5.96907
70.075 5.876673
70.080 6.012076
70.085 5.465808
70.090 5.272254
70.095 5.499368
70.100 5.716382
70.105 5.599099
70.110 5.475414
70.115 5.247926
70.120 5.466049
70.125 5.414903
70.130 5.484044
70.135 5.10156
70.140 4.742989
70.145 4.58315
70.150 4.30654
70.155 4.402394
70.160 4.743446
70.165 4.703506
70.170 4.76016
70.175 4.91214
70.180 5.127226
70.185 5.240391
70.190 5.22509
70.195 5.115849
70.200 5.131477
70.205 5.044668
70.210 5.257354
70.215 5.490616
70.220 5.84633
70.225 5.778208
70.230 5.940143
70.235 5.746675
70.240 5.978334
70.245 5.689243
70.250 5.534804
70.255 5.464962
70.260 5.593287
70.265 5.660506
70.270 5.584486
70.275 5.408929
70.280 5.785602
70.285 5.57898
70.290 5.449522
70.295 5.43165
70.300 5.467041
70.305 5.626247
70.310 5.626887
70.315 5.249535
70.320 5.17162
70.325 5.024944
70.330 4.839039
70.335 4.95582
70.340 5.048009
70.345 5.010484
70.350 5.084975
70.355 5.026854
70.360 5.361599
70.365 5.11421
70.370 4.902407
70.375 4.73745
70.380 4.66301
70.385 4.639201
70.390 4.75826
70.395 4.711326
70.400 4.958533
70.405 4.945157
70.410 4.995571
70.415 4.678656
70.420 4.742914
70.425 4.702264
70.430 4.547338
70.435 4.354472
70.440 4.595911
70.445 4.79532
70.450 4.932572
70.455 5.006427
70.460 5.34955
70.465 5.362245
70.470 5.192696
70.475 4.833148
70.480 4.76983
70.485 4.96139
70.490 4.893231
70.495 4.746895
70.500 4.90792
70.505 5.337465
70.510 5.447488
70.515 5.675741
70.520 6.124865
70.525 6.125321
70.530 6.154143
70.535 6.124262
70.540 5.958406
70.545 5.990819
70.550 5.790648
70.555 5.493764
70.560 5.686738
70.565 5.344675
70.570 5.43282
70.575 5.545024
70.580 5.61958
70.585 5.629746
70.590 5.537876
70.595 5.270536
70.600 5.232717
70.605 5.151689
70.610 5.025291
70.615 5.218956
70.620 5.211996
70.625 4.920762
70.630 5.379264
70.635 5.534827
70.640 5.586952
70.645 5.614672
70.650 5.41826
70.655 5.709642
70.660 6.274539
70.665 6.091436
70.670 6.190825
70.675 6.28741
70.680 6.387197
70.685 6.250283
70.690 6.199475
70.695 6.069259
70.700 6.033464
70.705 5.849359
70.710 5.403662
70.715 5.182724
70.720 5.154737
70.725 4.802465
70.730 4.691842
70.735 4.669403
70.740 5.279551
70.745 5.589104
70.750 5.614868
70.755 5.777926
70.760 5.978789
70.765 5.646141
70.770 5.412922
70.775 5.014532
70.780 5.010424
70.785 5.015946
70.790 5.198784
70.795 5.44563
70.800 5.675986
70.805 6.002639
70.810 5.985172
70.815 6.270732
70.820 6.40897
70.825 6.417904
70.830 6.656468
70.835 6.841897
70.840 6.780919
70.845 6.735841
70.850 6.517101
70.855 6.316907
70.860 6.026217
70.865 5.713964
70.870 5.879036
70.875 5.788063
70.880 5.70792
70.885 5.673137
70.890 5.489647
70.895 5.379735
70.900 5.669543
70.905 5.797079
70.910 5.974164
70.915 6.090615
70.920 6.293735
70.925 6.442122
70.930 6.560982
70.935 6.107419
70.940 5.661095
70.945 5.664596
70.950 5.710437
70.955 5.530867
70.960 5.622131
70.965 5.3736
70.970 5.237523
70.975 5.04593
70.980 4.492447
70.985 4.211233
70.990 4.310863
70.995 4.412893
71.000 4.830103
71.005 4.959749
71.010 5.212775
71.015 5.470649
71.020 5.406268
71.025 5.413586
71.030 5.108697
71.035 4.850962
71.040 4.996459
71.045 5.004177
71.050 5.043973
71.055 5.024988
71.060 5.111219
71.065 5.284511
71.070 5.303707
71.075 5.016165
71.080 4.933785
71.085 4.817969
71.090 5.018785
71.095 4.781191
71.100 4.751148
71.105 4.931018
71.110 5.610563
71.115 5.722607
71.120 5.725177
71.125 5.78371
71.130 5.882679
71.135 5.757964
71.140 5.295623
71.145 5.115373
71.150 5.235068
71.155 5.269558
71.160 5.099276
71.165 5.048241
71.170 5.159284
71.175 5.017863
71.180 5.071983
71.185 5.196148
71.190 5.236882
71.195 5.172092
71.200 5.463082
71.205 5.607661
71.210 5.674788
71.215 5.117949
71.220 4.764082
71.225 4.789699
71.230 4.658966
71.235 4.911341
71.240 5.220939
71.245 5.403246
71.250 5.873021
71.255 6.123866
71.260 6.086144
71.265 6.269741
71.270 5.867545
71.275 5.648527
71.280 5.908841
71.285 5.802797
71.290 5.758924
71.295 5.809369
71.300 5.761804
71.305 5.763251
71.310 5.419832
71.315 5.040963
71.320 4.816745
71.325 4.848876
71.330 4.770057
71.335 4.745712
71.340 4.550995
71.345 4.647302
71.350 4.67995
71.355 4.634315
71.360 4.705792
71.365 4.563225
71.370 4.505498
71.375 4.68416
71.380 4.473188
71.385 4.679223
71.390 4.657474
71.395 4.430542
71.400 4.603651
71.405 4.725939
71.410 4.879632
71.415 5.420296
71.420 5.4046
71.425 5.548199
71.430 5.570841
71.435 5.622556
71.440 5.936992
71.445 6.010582
71.450 5.706255
71.455 5.625859
71.460 5.728516
71.465 5.874826
71.470 5.664634
71.475 5.153509
71.480 4.961692
71.485 4.667537
71.490 4.921753
71.495 4.994873
71.500 5.020891
71.505 5.193462
71.510 5.031204
71.515 5.017932
71.520 5.39434
71.525 5.369183
71.530 5.204329
71.535 5.271043
71.540 5.427406
71.545 5.490466
71.550 5.556261
71.555 5.334881
71.560 5.032183
71.565 4.987613
71.570 4.993845
71.575 4.894616
71.580 5.097982
71.585 5.289575
71.590 5.335907
71.595 5.910766
71.600 5.868136
71.605 5.46275
71.610 5.35935
71.615 5.265698
71.620 5.204542
71.625 5.174915
71.630 5.133397
71.635 5.318443
71.640 5.327541
71.645 5.748217
71.650 5.575318
71.655 5.309697
71.660 5.621528
71.665 5.419367
71.670 5.244407
71.675 5.214129
71.680 4.981691
71.685 5.151517
71.690 5.266265
71.695 4.925778
71.700 4.998686
71.705 5.215902
71.710 5.252349
71.715 5.658882
71.720 5.538436
71.725 5.76709
71.730 5.745224
71.735 5.718827
71.740 6.018977
71.745 5.784031
71.750 5.3541
71.755 5.430214
71.760 5.221618
71.765 5.191959
71.770 4.986236
71.775 5.03438
71.780 5.472417
71.785 5.857728
71.790 5.9485
71.795 6.025561
71.800 6.070539
71.805 6.055122
71.810 5.892485
71.815 5.683632
71.820 5.447311
71.825 5.373868
71.830 5.144988
71.835 5.038146
71.840 4.858839
71.845 4.498621
71.850 4.703105
71.855 4.858498
71.860 4.763711
71.865 5.121223
71.870 5.570032
71.875 5.943731
71.880 6.303732
71.885 5.954949
71.890 5.72468
71.895 5.4554
71.900 5.276975
71.905 4.733707
71.910 4.474267
71.915 4.104336
71.920 4.416584
71.925 4.50082
71.930 4.785377
71.935 4.58638
71.940 4.886563
71.945 5.112813
71.950 5.266916
71.955 5.061557
71.960 5.323506
71.965 5.233369
71.970 5.310737
71.975 5.269735
71.980 5.447882
71.985 5.255379
71.990 5.665577
71.995 5.732893
72.000 6.101078
72.005 6.218342
72.010 5.9272
72.015 5.610934
72.020 5.711094
72.025 5.088931
72.030 4.875801
72.035 4.818788
72.040 4.76273
72.045 4.807273
72.050 5.034926
72.055 5.032991
72.060 5.433946
72.065 5.482278
72.070 5.245583
72.075 5.407361
72.080 5.334072
72.085 5.330998
72.090 5.294432
72.095 5.093528
72.100 5.017224
72.105 5.423572
72.110 5.313229
72.115 5.265608
72.120 5.17956
72.125 4.894541
72.130 4.74264
72.135 4.413591
72.140 4.000355
72.145 3.851577
72.150 3.982858
72.155 4.273642
72.160 4.379182
72.165 4.587241
72.170 4.884329
72.175 4.895259
72.180 5.180758
72.185 5.085377
72.190 5.089223
72.195 5.099508
72.200 5.035813
72.205 5.136933
72.210 5.13857
72.215 5.181343
72.220 5.080872
72.225 4.741576
72.230 5.011555
72.235 5.103874
72.240 5.057691
72.245 4.907239
72.250 4.699819
72.255 4.743583
72.260 4.883856
72.265 4.642569
72.270 4.49206
72.275 4.18482
72.280 4.440241
72.285 4.594609
72.290 4.753316
72.295 4.639791
72.300 4.655579
72.305 4.947355
72.310 5.204284
72.315 5.327438
72.320 5.222627
72.325 5.063052
72.330 5.127019
72.335 5.210917
72.340 5.263581
72.345 5.174752
72.350 5.210896
72.355 5.651034
72.360 6.10007
72.365 6.01997
72.370 5.77023
72.375 5.622776
72.380 5.719676
72.385 5.690478
72.390 5.065723
72.395 4.891094
72.400 4.977114
72.405 5.138138
72.410 5.045778
72.415 4.937002
72.420 4.802328
72.425 4.900104
72.430 4.977866
72.435 5.044108
72.440 4.998366
72.445 5.034639
72.450 5.119855
72.455 5.216624
72.460 5.313267
72.465 5.056671
72.470 4.908043
72.475 4.920372
72.480 4.728369
72.485 4.59347
72.490 4.656404
72.495 4.732934
72.500 4.892465
72.505 4.763511
72.510 4.804964
72.515 4.996773
72.520 5.047194
72.525 5.022223
72.530 5.245998
72.535 5.080678
72.540 5.55366
72.545 5.797973
72.550 5.97136
72.555 5.56428
72.560 5.431046
72.565 5.315193
72.570 5.540504
72.575 5.318264
72.580 5.186463
72.585 4.986904
72.590 5.277938
72.595 5.207634
72.600 5.108042
72.605 5.350193
72.610 5.446019
72.615 5.235921
72.620 5.370769
72.625 5.416344
72.630 5.358287
72.635 5.35816
72.640 5.050053
72.645 5.139187
72.650 4.989479
72.655 4.790174
72.660 4.960375
72.665 5.413867
72.670 5.429518
72.675 5.338275
72.680 5.257227
72.685 5.730219
72.690 5.904334
72.695 5.826422
72.700 5.444738
72.705 4.977646
72.710 4.757679
72.715 4.523385
72.720 4.689378
72.725 4.359127
72.730 4.264565
72.735 4.673387
72.740 5.040269
72.745 5.305956
72.750 5.554928
72.755 5.496251
72.760 5.711582
72.765 5.690384
72.770 5.274908
72.775 5.193993
72.780 5.336261
72.785 5.147001
72.790 4.87038
72.795 4.804996
72.800 5.123552
72.805 5.302479
72.810 5.185209
72.815 4.944769
72.820 4.980617
72.825 5.338141
72.830 5.468139
72.835 5.162049
72.840 5.111583
72.845 5.465737
72.850 5.404612
72.855 5.128891
72.860 5.02549
72.865 5.023808
72.870 5.157638
72.875 4.879303
72.880 4.858714
72.885 5.324445
72.890 5.551993
72.895 5.353103
72.900 5.376301
72.905 5.348666
72.910 5.575575
72.915 5.256135
72.920 5.289873
72.925 5.392359
72.930 5.542634
72.935 5.611526
72.940 5.593963
72.945 5.49712
72.950 5.4755
72.955 5.447205
72.960 5.50869
72.965 5.324747
72.970 5.445354
72.975 5.481091
72.980 5.301481
72.985 5.084555
72.990 4.55583
72.995 4.306804
73.000 3.978754
73.005 3.575051
73.010 3.801411
73.015 4.133887
73.020 4.065237
73.025 4.128065
73.030 4.577191
73.035 4.87973
73.040 4.778357
73.045 4.568191
73.050 4.563265
73.055 4.993874
73.060 5.45633
73.065 5.132664
73.070 5.03354
73.075 5.015597
73.080 5.111936
73.085 5.253188
73.090 4.910006
73.095 4.465054
73.100 4.406497
73.105 4.689994
73.110 4.746543
73.115 4.633692
73.120 4.55597
73.125 4.582939
73.130 4.716986
73.135 5.000315
73.140 5.1691
73.145 5.308442
73.150 5.166366
73.155 5.038163
73.160 5.279921
73.165 5.34672
73.170 4.901814
73.175 4.697117
73.180 4.845119
73.185 4.971046
73.190 4.920935
73.195 4.747675
73.200 4.765037
73.205 4.715374
73.210 4.783096
73.215 4.5996
73.220 4.613335
73.225 4.645786
73.230 4.341945
73.235 4.416592
73.240 4.391275
73.245 4.375949
73.250 4.275204
73.255 4.279708
73.260 4.778961
73.265 5.211254
73.270 5.285313
73.275 5.668004
73.280 5.839691
73.285 5.845945
73.290 5.738914
73.295 5.437471
73.300 5.445789
73.305 5.35928
73.310 5.12544
73.315 5.22727
73.320 5.523334
73.325 5.729764
73.330 5.908948
73.335 5.794852
73.340 5.940605
73.345 5.573256
73.350 5.28281
73.355 5.376853
73.360 5.353621
73.365 4.792774
73.370 4.57107
73.375 4.589964
73.380 4.670211
73.385 4.493409
73.390 4.307021
73.395 4.404047
73.400 4.90207
73.405 4.974734
73.410 5.359388
73.415 5.675397
73.420 5.94764
73.425 5.7466
73.430 5.728537
73.435 5.404055
73.440 5.375814
73.445 5.127006
73.450 4.949602
73.455 4.708879
73.460 4.627835
73.465 4.612048
73.470 4.900363
73.475 4.709538
73.480 4.791214
73.485 4.882865
73.490 5.10991
73.495 5.049794
73.500 5.041244
73.505 4.931628
73.510 5.129533
73.515 5.034202
73.520 4.893293
73.525 5.131422
73.530 5.227477
73.535 5.095709
73.540 5.069059
73.545 4.91686
73.550 5.156063
73.555 5.388742
73.560 5.156192
73.565 5.210645
73.570 5.550215
73.575 5.74188
73.580 5.726856
73.585 5.733873
73.590 5.647749
73.595 5.751097
73.600 5.557477
73.605 5.471709
73.610 5.786179
73.615 5.848684
73.620 5.825702
73.625 5.903227
73.630 5.740167
73.635 5.893826
73.640 5.801408
73.645 5.598502
73.650 5.398534
73.655 5.36101
73.660 5.510609
73.665 5.674137
73.670 5.829521
73.675 5.53469
73.680 5.446443
73.685 5.372557
73.690 5.161596
73.695 5.060821
73.700 4.937822
73.705 4.612232
73.710 4.66562
73.715 4.688165
73.720 4.659563
73.725 4.509917
73.730 4.378206
73.735 4.370111
73.740 4.264438
73.745 4.445054
73.750 4.498277
73.755 4.601507
73.760 4.73057
73.765 4.900467
73.770 5.18709
73.775 5.193776
73.780 5.613932
73.785 5.809281
73.790 5.741607
73.795 5.696263
73.800 5.775427
73.805 5.744116
73.810 5.577697
73.815 5.266451
73.820 5.301495
73.825 5.359881
73.830 5.540113
73.835 5.071914
73.840 5.015895
73.845 4.586298
73.850 4.250595
73.855 3.977953
73.860 3.693322
73.865 3.669795
73.870 4.15864
73.875 4.751685
73.880 4.883977
73.885 5.040111
73.890 5.215048
73.895 5.442678
73.900 5.191559
73.905 4.722836
73.910 4.191339
73.915 4.551287
73.920 4.557612
73.925 4.361502
73.930 4.3577
73.935 4.436856
73.940 4.771076
73.945 4.632486
73.950 4.185497
73.955 4.397027
73.960 4.345452
73.965 4.256996
73.970 4.382271
73.975 4.661044
73.980 4.743039
73.985 4.664861
73.990 4.336437
73.995 4.231326
74.000 4.192041
74.005 4.002468
74.010 3.626752
74.015 4.040963
74.020 4.579177
74.025 4.794609
74.030 5.134202
74.035 5.212955
74.040 5.087189
74.045 5.145765
74.050 4.81254
74.055 4.595895
74.060 4.655022
74.065 4.539852
74.070 4.710135
74.075 4.61031
74.080 4.67175
74.085 4.831962
74.090 4.822406
74.095 4.570745
74.100 4.130179
74.105 3.938231
74.110 4.095317
74.115 4.116476
74.120 3.967138
74.125 4.018976
74.130 4.330774
74.135 4.45695
74.140 4.488148
74.145 4.445943
74.150 4.464383
74.155 4.633995
74.160 4.645901
74.165 4.705043
74.170 5.04445
74.175 5.086382
74.180 5.021937
74.185 5.067278
74.190 4.980009
74.195 4.95666
74.200 5.043904
74.205 4.935241
74.210 4.666191
74.215 4.596748
74.220 4.567854
74.225 4.874255
74.230 4.95226
74.235 4.872649
74.240 4.744147
74.245 5.261101
74.250 5.392256
74.255 5.389398
74.260 5.076655
74.265 4.921386
74.270 4.936391
74.275 5.108283
74.280 4.964925
74.285 4.721889
74.290 4.828137
74.295 4.826906
74.300 4.709497
74.305 4.550279
74.310 4.714377
74.315 4.909417
74.320 5.037592
74.325 4.664585
74.330 4.64845
74.335 4.77622
74.340 4.717706
74.345 4.653144
74.350 4.616426
74.355 5.018395
74.360 5.323597
74.365 5.346789
74.370 5.504521
74.375 5.645309
74.380 5.62875
74.385 5.780193
74.390 5.418109
74.395 5.613264
74.400 5.6342
74.405 5.474185
74.410 5.281579
74.415 4.922028
74.420 4.458522
74.425 4.389372
74.430 4.308432
74.435 4.354548
74.440 4.29282
74.445 4.45393
74.450 4.600266
74.455 4.993979
74.460 5.524836
74.465 5.358928
74.470 5.55388
74.475 5.762323
74.480 5.834955
74.485 5.85201
74.490 5.464931
74.495 5.029942
74.500 5.065976
74.505 5.178823
74.510 4.912599
74.515 4.717824
74.520 4.770932
74.525 4.871674
74.530 4.803015
74.535 4.59822
74.540 4.573914
74.545 4.572851
74.550 4.659832
74.555 4.852494
74.560 4.967627
74.565 5.306863
74.570 5.134459
74.575 5.251606
74.580 5.316993
74.585 5.385766
74.590 5.137442
74.595 4.910349
74.600 5.01525
74.605 5.144044
74.610 5.162971
74.615 5.313173
74.620 5.02979
74.625 4.820754
74.630 4.907846
74.635 4.538134
74.640 4.335016
74.645 4.059728
74.650 3.78021
74.655 3.762838
74.660 3.877012
74.665 3.642526
74.670 3.897746
74.675 3.816052
74.680 4.005305
74.685 4.615729
74.690 5.117764
74.695 5.249567
74.700 5.385079
74.705 5.583452
74.710 5.517535
74.715 5.401649
74.720 5.101174
74.725 4.793778
74.730 4.47875
74.735 4.559239
74.740 4.615924
74.745 4.731798
74.750 4.554012
74.755 4.548475
74.760 4.855844
74.765 5.021496
74.770 4.586318
74.775 4.615429
74.780 4.668974
74.785 4.956567
74.790 4.981593
74.795 5.116838
74.800 5.200273
74.805 5.269413
74.810 5.016632
74.815 4.908572
74.820 4.370724
74.825 4.402014
74.830 4.093424
74.835 3.831862
74.840 4.038959
74.845 4.109109
74.850 4.265046
74.855 4.199309
74.860 4.097723
74.865 4.09455
74.870 4.51551
74.875 4.618796
74.880 4.536919
74.885 4.450841
74.890 4.352425
74.895 4.460934
74.900 4.529725
74.905 4.205692
74.910 4.026689
74.915 4.335367
74.920 4.671402
74.925 4.870446
74.930 4.910756
74.935 5.087808
74.940 5.080919
74.945 5.248505
74.950 5.064884
74.955 4.961511
74.960 4.973711
74.965 4.900059
74.970 4.890766
74.975 4.921696
74.980 5.02243
74.985 5.045445
74.990 4.906809
74.995 4.689076
75.000 4.954375
